#
#--------------------------------------------
# ARGUMENTS
#--------------------------------------------
#  ARG0000: ./../hst1pass.e
#  ARG0001: HMIN=5
#  ARG0002: FMIN=1000.0
#  ARG0003: PMAX=66000.0
#  ARG0004: PERT=2
#  ARG0005: OUT=xympqks
#  ARG0006: PSF=./../psfs/STDPSF_WFC3UV_F606W.fits
#  ARG0007: id8048dyq_flc.fits
#
#=================================
# WFC3/UVIS POSTFLASH INFO
#
# FLSHCORR: 'COMPLETE'
# FLASHDUR:                  3.1               3.10
# FLASHLVL:                    8               8.00
# FLASHLVL:                    8               8.00
# FLASHCUR: 'LOW    '                           L
# SHUTRPOS: 'A    '                             A
# DARKTIME:           113.699296             113.70
# DARKEST :                                    1.06 2018.50
#
#
#================================
# BASIC STAR-FINDING PARAMETERS
#
# FILENAME: id8048dyq_flc.fits
#   NAXIS1:  4096
#   NAXIS2:  4096
#
#   CRPIX1:    2048.0000000000000000000000
#   CRPIX2:    1026.0000000000000000000000
#   CRVAL1:     201.5364272924400097508624
#   CRVAL2:     -47.6336630203250024351291
#    CD1_1:      -0.0000062738011073863172
#    CD1_2:      -0.0000090938958797745577
#    CD2_1:      -0.0000090938958797745577
#    CD2_2:       0.0000062738011073863172
#
#     HMIN:          5
#     PMAX:      66000.0
#     FMIN:       1000.0      1000.0
#   PIXFIT: 5x5
# HISTMODE:          7.3
# HIFLAG  :      64000
# HIFLAG_I:      64000
# LOFLAG_I:        -50
# DOAPPHOT:          F
#      PID:      14662
#     FILT:      F606W
#    EXPTI:        104.0000
#    EXPTE:        104.0000
#     rDAT:       2018.49721527
#  TIMESTR:      '11:37:29'
#  DATESTR:      '2018-06-30'
# APERTURE:      'UVIS-CENTER     '
#     GAIN:          0.00
#
#  PSF_INP: ./../psfs/STDPSF_WFC3UV_F606W.fits
#  PSF_USE: id8048dyq_psf.fits
#   NPERTs:    2
#
#  GDC_INP: NONE
#
#
#================================
# PSF INFO
#
# PSFFILE_USE: id8048dyq_psf.fits
#
#      CENTRAL PIXEL ARRAY
#                           0000    0682    1365    2048    2731    3413    4096
#                             01      02      03      04      05      06      07
#               4096 08   0.1297  0.1401  0.1455  0.1457  0.1466  0.1466  0.1445
#               3413 07   0.1365  0.1417  0.1433  0.1438  0.1445  0.1434  0.1432
#               2731 06   0.1411  0.1440  0.1427  0.1413  0.1438  0.1421  0.1397
#               2049 05   0.1408  0.1449  0.1427  0.1391  0.1439  0.1426  0.1381
#               2048 04   0.1389  0.1480  0.1484  0.1399  0.1452  0.1489  0.1462
#               1365 03   0.1403  0.1429  0.1399  0.1388  0.1483  0.1477  0.1442
#               0682 02   0.1377  0.1370  0.1329  0.1413  0.1618  0.1458  0.1353
#               0000 01   0.1301  0.1337  0.1316  0.1500  0.1727  0.1432  0.1275
#
# CENTRAL PERT PSF:
#      02  -0.0407 -0.0495
#      01  -0.0505 -0.0558
#
# CENTRAL PSFFILE_INP: ./../psfs/STDPSF_WFC3UV_F606W.fits
#                 0000    0682    1365    2048    2731    3413    4096
#                   01      02      03      04      05      06      07
#     4096 08   0.1704  0.1823  0.1891  0.1908  0.1932  0.1946  0.1940
#     3413 07   0.1788  0.1854  0.1883  0.1903  0.1924  0.1926  0.1938
#     2731 06   0.1851  0.1893  0.1892  0.1891  0.1929  0.1924  0.1913
#     2049 05   0.1864  0.1917  0.1907  0.1883  0.1942  0.1940  0.1907
#     2048 04   0.1845  0.1948  0.1963  0.1891  0.1955  0.2004  0.1989
#     1365 03   0.1876  0.1912  0.1892  0.1892  0.1998  0.2003  0.1979
#     0682 02   0.1866  0.1868  0.1838  0.1931  0.2145  0.1995  0.1900
#     0000 01   0.1806  0.1851  0.1839  0.2031  0.2268  0.1980  0.1833
#
# CENTRAL  DIFFERENCE
#                 0000    0682    1365    2048    2731    3413    4096
#                   01      02      03      04      05      06      07
#     4096 08   0.0407  0.0422  0.0436  0.0451  0.0466  0.0481  0.0495
#     3413 07   0.0423  0.0437  0.0451  0.0465  0.0478  0.0492  0.0506
#     2731 06   0.0440  0.0452  0.0465  0.0478  0.0491  0.0503  0.0516
#     2049 05   0.0456  0.0468  0.0480  0.0491  0.0503  0.0515  0.0526
#     2048 04   0.0456  0.0468  0.0480  0.0491  0.0503  0.0515  0.0526
#     1365 03   0.0473  0.0483  0.0494  0.0505  0.0515  0.0526  0.0537
#     0682 02   0.0489  0.0499  0.0508  0.0518  0.0528  0.0537  0.0547
#     0000 01   0.0505  0.0514  0.0523  0.0531  0.0540  0.0549  0.0557
#
#
#=================================
# FRAME INFO
#
#      WCSMODE: AUTO
#     TARGNAME: NGC-5139-HSSB
#     RA_TARG :   2.013959166667E+02
#     DEC_TARG:  -4.756673611111E+01
#        INSTu:     8
#     PLATESCL:   40.000 mas/pix
#
#        INST1:       2048.00     -0.00000627 -0.00000909       201.5364273  13:26:08.74
#            2:       1026.00     -0.00000909  0.00000627       -47.6336630 -47:38:01.18       39.773
#        -----     ----------     ----------- -----------      ------------ ------------     ---------
#        FRAME         CRPIX         CD_1        CD_2           RADEC(DEG)  RADEC(SEXIG)     (mas/pix)
#        -----     ----------     ----------- -----------      ------------ ------------     ---------
#        DEST1:          0.00     -0.00001111  0.00000000       201.3959167  13:25:35.02       40.000
#            2:          0.00      0.00000000  0.00001111       -47.5667361 -47:34:00.25
#
#
#=======================================
# FINDING STATISTICS
#
#  WHY    NPIX      %PIX   EXPLANATION
#  --- --------  -------   -------------
#   1    32688    0.195%   ..1..not on chip....
#   2 14898577   88.802%   ..2..not loc max....
#   3  1550369    9.241%   ..3..h < hmax.......
#   4   206222    1.229%   ..4..flux too low...
#   5        0    0.000%   ..5..below mask thr.
#   6        0    0.000%   ..6..out of bounds..
#   7       14    0.000%   ..7..loflag issues..
#   8        0    0.000%   ..8..saturated......
#   9       16    0.000%   ..9..not contig sat.
#  10        0    0.000%   .10..not loc sat max
#  11        0    0.000%   .11..sat weirdness..
#  12     5108    0.030%   .12..pk but not qsel
#  13        0    0.000%   .13..pk too peaky...
#  14        5    0.000%   .14..satd CR........
#  15     2344    0.014%   .15..good unsat.....
#  16       53    0.000%   .16..good satd......
#
#
#=======================================
# LUMINOSITY FUNCTION EXTRACTED
#
#    MAG   LFe    CUMe      LFe/s CUMe/s
#-------- -----  ------   ------- ------
# LF -18      2      2          0      0
# LF -17      5      7          0      0
# LF -16     20     27          0      0
# LF -15     15     42          0      0
# LF -14     48     90          0      0
# LF -13    170    260          1      1
# LF -12    442    702          6      7
# LF -11    627   1329         20     27
# LF -10    755   2084         13     40
# LF  -9    313   2397         47     87
# LF  -8      0   2397        160    247
# LF  -7      0   2397        433    680
# LF  -6      0   2397        615   1295
# LF  -5      0   2397        753   2048
# LF  -4      0   2397        349   2397
# LF  -3      0   2397          0   2397
# LF  -2      0   2397          0   2397
# LF  -1      0   2397          0   2397
#-------- -----  ------   ------- ------
#
#
#=====================================
# BOUNDARY INFO   INST=8 Ks=2
#
# -----------     ------------- -------------     ------------- -------------     ------------- -------------     ------------- -------------
#     SYS CHP         P1a           P1b               P2a           P2b               P3a           P3b               P4a           P4b
# -----------     ------------- -------------     ------------- -------------     ------------- -------------     ------------- -------------
# BDRY_xy_K1:         1.0000000  2052.0000000      4095.0000000  2052.0000000      4095.0000000  4095.0000000         1.0000000  4095.0000000
# BDRY_uv_K1:         1.0000000  2052.0000000      4095.0000000  2052.0000000      4095.0000000  4095.0000000         1.0000000  4095.0000000
# BDRY_rd_K1:       201.5416367   -47.6086108       201.5035159   -47.6458366       201.4759539   -47.6330080       201.5140850   -47.5957914
# BDRY_UV_K1:         1.0000000  2052.0000000      4095.0000000  2052.0000000      4095.0000000  4095.0000000         1.0000000  4095.0000000
# -----------     ------------- -------------     ------------- -------------     ------------- -------------     ------------- -------------
# BDRY_xy_K2:         1.0000000     1.0000000      4095.0000000     1.0000000      4095.0000000  2045.0000000         1.0000000  2045.0000000
# BDRY_uv_K2:         1.0000000     1.0000000      4095.0000000     1.0000000      4095.0000000  2045.0000000         1.0000000  2045.0000000
# BDRY_rd_K2:       201.5693099   -47.6214738       201.5311994   -47.6587088       201.5036103   -47.6458805       201.5417311   -47.6086547
# BDRY_UV_K2:         1.0000000     1.0000000      4095.0000000     1.0000000      4095.0000000  2045.0000000         1.0000000  2045.0000000
# -----------     ------------- -------------     ------------- -------------     ------------- -------------     ------------- -------------
#
#
#===================================================
#  FILEOUT: id8048dyq_flc.xympqks                                                           
#---------------------------------------------------
# (01)  x -- raw detector x pos    c002-c010    F004
# (02)  y -- raw detector y pos    c012-c020    F005
# (03)  m -- instl mag             c022-c028    F006
# (04)  p -- peak pixel value      c030-c037    F018
# (05)  q -- quality of fit        c039-c043    F019
# (06)  k -- chip number           c045-c045    F023
# (07)  s -- sky value             c047-c052    F025
#---------------------------------------------------
#
#  (01)      (02)     (03)     (04)   (05)     (07)   
#
#....x.... ....y.... ...m... ....p... ..q.. k ...s..  
#
 1067.8081    6.5112 -11.128  3065.97 0.030 2   8.40
 1792.0000    7.0000 -12.165 73431.69 0.000 2  41.15
 3260.1680    7.6961  -9.358   713.62 0.069 2   6.62
  839.1837   10.9046 -11.398  4825.74 0.038 2   9.58
 2359.5090   11.7534 -10.092  1249.06 0.049 2   9.21
 2650.9031   13.4287 -10.141  1450.06 0.077 2   8.68
 1114.5079   21.7780  -9.405   684.39 0.071 2   9.20
 1442.3551   23.4101  -9.554   701.54 0.043 2   5.67
 1683.9167   22.9344 -12.574 13823.05 0.036 2  15.14
 3162.6279   23.4461  -9.797   909.93 0.053 2   6.21
 3664.4087   22.7562  -9.341   630.19 0.073 2   6.42
 3718.6421   22.6374  -9.124   466.62 0.065 2   8.26
 2993.7874   30.2754 -14.151 58912.38 0.057 2  28.57
 3932.6064   29.6676  -9.369   596.45 0.081 2   6.62
 1286.7361   32.5078 -13.276 21134.07 0.023 2  16.40
  929.7806   33.3254 -12.672 14191.36 0.032 2  16.36
  283.2660   34.3198 -15.719 81631.52 0.000 2  91.85
 1930.7463   35.2828 -13.597 32926.30 0.046 2  17.37
 2659.9541   37.1858  -9.681  1113.06 0.081 2  10.01
 2558.8406   38.1521 -10.546  2423.97 0.062 2   7.29
 2970.5979   40.6844 -12.017  7224.42 0.046 2  14.01
 2045.5315   42.0924 -11.130  3211.62 0.054 2   9.01
 3484.7539   42.5120  -9.601   759.31 0.063 2   6.63
  803.3533   45.0359 -10.603  2198.10 0.048 2   8.25
    9.5866   49.7274  -9.177   544.57 0.113 2   8.76
  299.6850   50.2707  -9.942  1105.55 0.067 2  28.32
 3167.0527   50.1473  -9.385   786.29 0.087 2  10.06
 2520.5547   55.7217  -9.564   733.06 0.069 2   7.67
 4084.3757   56.2081 -12.124  8105.03 0.063 2  10.13
 3069.5088   57.5817 -11.233  3238.44 0.047 2   8.49
  559.0201   60.8398 -11.208  4244.49 0.047 2   8.21
 1241.7428   60.5610 -14.300 55280.03 0.022 2  29.08
 2746.3794   62.7150 -11.557  5237.85 0.068 2  10.10
 2048.2129   64.3048 -10.560  2103.34 0.057 2   8.14
  911.0914   64.5154 -13.016 18216.32 0.026 2  13.52
 2226.2507   66.6378 -11.022  3136.67 0.069 2   8.76
 2278.8181   68.4173  -9.079   529.79 0.091 2   8.09
 2352.3052   67.8909 -11.854  7525.43 0.038 2  12.66
 1693.3430   69.2192 -12.235  8732.70 0.040 2  14.01
  731.9396   73.6074 -12.537 12454.20 0.039 2  15.05
 3857.4775   75.0844 -10.041  1099.73 0.065 2   8.04
 2401.2671   76.5373 -12.271  9664.07 0.041 2  19.17
 3182.5920   76.8041  -9.706   885.43 0.050 2   9.05
 1935.3921   78.7938 -12.520 12274.81 0.032 2  14.71
  189.7013   79.7764 -10.050  1286.03 0.062 2   6.68
  742.2336   80.3158 -10.660  2243.11 0.042 2  12.11
 2487.3586   81.0261 -11.644  6056.53 0.045 2  13.30
 3505.4534   81.3427 -10.336  1383.07 0.038 2   7.23
 4019.5769   81.9264 -10.570  1882.22 0.051 2   6.09
 3800.6345   83.6270 -10.827  2242.11 0.043 2  10.36
  871.1464   85.5938 -11.910  6891.13 0.035 2  10.36
 3430.0186   85.7931  -9.509   887.37 0.070 2   8.98
 2670.8230   88.6130 -11.625  5560.97 0.055 2   9.62
 2943.6689   88.6502 -10.284  1534.22 0.051 2   8.85
 1688.8816   89.8611 -10.000  1321.42 0.044 2   7.16
  670.8537   90.6303 -10.420  1778.65 0.067 2   8.75
 3061.4211   91.0039 -11.630  5590.30 0.042 2   9.99
  619.8818   98.2931 -10.156  1465.71 0.052 2   6.66
 3907.4275   98.6150 -10.905  2439.37 0.035 2   8.48
 2426.8010  101.7205 -15.733 76731.82 0.000 2  94.75
 3233.2351  102.2117 -14.858 75947.09 0.000 2  50.68
 2152.8877  105.6261 -11.333  3971.63 0.081 2   9.82
  682.3518  109.3901  -9.449   643.55 0.066 2   6.59
 1194.1233  109.9570  -9.718   985.25 0.072 2   8.74
  415.9526  113.0550 -11.240  4489.67 0.050 2   6.40
   68.5313  113.9361 -10.640  2152.33 0.075 2   6.90
 3396.7283  116.5105  -9.722   817.92 0.054 2   7.66
 3797.3523  116.9758 -10.509  1952.44 0.049 2   8.96
 2954.3445  118.2287  -9.374   683.40 0.091 2   7.03
 3108.5273  119.4503  -9.650   772.00 0.057 2   7.80
  572.3320  122.5803 -11.825  6161.10 0.039 2  10.86
 1350.5359  125.2194  -9.615   797.49 0.043 2  12.48
 2143.9558  126.7676  -9.524   839.52 0.073 2   8.55
 2206.8853  129.9290  -9.529   942.70 0.060 2   5.88
  902.6658  132.4310 -10.430  1659.48 0.031 2   6.27
 1212.1075  131.6497  -9.912  1122.57 0.044 2   8.22
 1349.4047  133.5779 -11.589  4613.73 0.038 2  10.17
  228.7412  135.8913 -10.262  1652.68 0.065 2   8.08
 1187.3181  135.9879 -13.129 21676.56 0.021 2  15.37
 1948.1089  140.2805 -10.455  1864.47 0.057 2   9.02
 1912.0361  140.7086  -9.417   759.47 0.076 2   8.34
 1551.2207  144.3922  -9.980  1048.75 0.050 2   6.93
 3884.1604  145.6290 -12.618 13411.09 0.038 2  15.44
 1310.6208  147.0834 -12.613 13022.71 0.023 2  15.65
 3751.9888  149.0836  -9.820  1019.47 0.115 2  25.21
  655.4065  151.9990  -9.461   768.12 0.069 2   9.13
  363.1272  153.4224 -11.095  3179.18 0.058 2   7.38
 3742.6836  154.6489 -14.312 57739.27 0.026 2  27.17
 3266.3367  156.2582 -10.728  2304.16 0.041 2  10.07
 3708.9773  156.6411 -12.458 11875.58 0.036 2  15.99
  135.3811  163.3170  -9.278   590.10 0.093 2   8.17
 1425.6724  163.6875 -10.769  2245.29 0.031 2   8.17
 3851.8564  163.9607 -10.733  2610.95 0.044 2  10.58
 1504.2180  165.9265 -10.855  2731.86 0.052 2   9.38
 2626.2419  169.1337 -10.291  1853.81 0.058 2   6.38
 2675.8918  169.0533 -10.643  2652.17 0.066 2   9.75
 3881.7756  171.0675 -10.667  2386.64 0.046 2  12.40
 3938.3376  170.5966 -10.857  2473.33 0.050 2   9.08
 1095.0933  172.2333  -9.716   995.28 0.041 2   7.00
 3246.7607  172.1440 -10.016  1373.78 0.063 2   8.37
 3240.9961  173.1029  -9.698   991.28 0.107 2   7.77
 1628.1694  173.6040  -9.683   899.86 0.059 2   7.63
 1217.3264  175.4062  -9.997  1005.98 0.044 2   9.66
 2699.2563  174.6647 -10.773  2644.73 0.058 2  10.16
 3182.6746  175.4889  -9.979  1080.15 0.065 2   8.30
 3900.8162  177.5577 -11.521  4458.41 0.037 2  12.26
 1084.9087  183.4646  -9.246   607.08 0.057 2   6.15
 2358.8972  183.3866 -10.762  2561.22 0.045 2   7.91
  828.3491  184.8345  -9.758   934.40 0.059 2   7.30
  589.2665  188.0032 -10.782  2729.09 0.046 2   8.67
  899.2934  188.2813 -11.262  3754.96 0.038 2   9.79
  125.7686  191.1879 -11.553  5531.39 0.058 2   8.11
 2630.0823  191.1267  -9.637  1091.67 0.073 2   7.51
 1191.0693  192.3228 -11.482  4719.67 0.028 2   9.70
  324.5235  193.5302 -11.620  4605.56 0.042 2  11.09
  753.6114  195.1621  -9.123   552.53 0.085 2   8.14
 3603.0164  204.7477 -10.130  1537.95 0.048 2   8.24
 2275.4883  205.8133 -13.611 27512.92 0.173 2  20.15
  826.7498  208.7677 -10.666  2218.57 0.042 2   8.34
 3437.7292  214.6143 -13.023 18068.01 0.026 2  16.91
  619.1714  217.5687  -9.462   706.19 0.044 2   6.84
 1953.3059  220.0824 -12.544 12717.29 0.042 2  15.06
 3268.1658  223.7238  -9.382   766.30 0.050 2   7.17
 1934.8937  225.7045 -11.130  3468.47 0.042 2   9.39
 2753.1741  225.9496 -10.436  2197.15 0.066 2   7.50
 3154.2559  225.5824 -12.172  8838.14 0.036 2  12.74
 2180.4280  226.9265 -10.765  2394.87 0.051 2   8.67
 2659.2544  227.5444 -12.088  7850.31 0.071 2  11.54
  541.5456  229.7961 -11.544  4643.38 0.037 2   8.89
 1685.2300  230.5113 -11.026  2746.71 0.044 2   9.08
  874.7570  233.2431 -10.668  2258.46 0.033 2   6.08
 1441.0067  234.1542  -9.813  1055.80 0.053 2   8.94
  339.5349  235.6325 -12.327  9091.46 0.040 2  11.34
 3033.7954  237.3428 -11.418  4560.92 0.059 2  10.88
 3647.7566  237.4817 -11.858  5926.56 0.039 2   9.69
   48.8210  237.6508  -9.329   666.20 0.108 2   8.65
 3045.8909  239.9381 -10.696  2730.41 0.047 2   8.08
  972.8565  240.5524 -10.948  2657.75 0.028 2   8.26
  444.4052  242.3618 -14.112 46620.75 0.038 2  29.63
  452.7398  242.4139 -11.531  4714.78 0.025 2  26.39
 2026.5514  244.4991 -12.422  9103.12 0.035 2  12.46
 3931.9426  246.7642 -10.624  2280.38 0.043 2   7.27
  540.0801  249.8111 -10.403  1972.78 0.056 2   9.91
 1094.1699  251.1803 -10.944  2981.28 0.032 2  10.47
 3793.9016  251.1243 -11.248  4148.08 0.046 2  11.36
 2286.6155  252.7751 -10.617  2067.76 0.045 2  11.77
 4018.5215  253.9806 -10.961  2743.29 0.046 2   9.70
 1805.4703  258.0557 -10.477  1754.80 0.046 2   8.71
 2137.7505  261.4479 -10.968  2661.21 0.063 2   9.64
  690.1195  263.3158 -10.387  1710.71 0.042 2   7.76
 3813.2383  267.2091 -11.257  3821.13 0.036 2  10.36
  810.6745  268.3794  -9.836   996.16 0.043 2   7.49
 2848.9084  267.8593 -10.260  1885.56 0.055 2   7.96
 1937.0658  269.1226  -9.551   916.08 0.071 2   8.38
  471.4796  270.6734 -12.074  7478.96 0.031 2  12.29
 1019.9250  271.4046 -11.918  6807.53 0.027 2   8.27
 1785.3276  271.6195 -12.141  7773.25 0.047 2  13.91
 2333.4773  271.7647 -10.324  1503.74 0.056 2   7.28
 1480.7229  273.2029 -10.586  2064.48 0.040 2   9.98
 1580.0133  272.8929 -12.829 17317.58 0.038 2 114.91
 2476.8171  272.7358 -12.785 17351.74 0.037 2  14.06
 2924.1499  276.0785 -12.459 13590.89 0.046 2  13.41
 1383.9515  276.5190 -10.978  2634.17 0.033 2   8.89
 3854.5161  276.4945 -10.701  1798.81 0.027 2   7.88
 1188.2122  278.0000 -10.771  2612.37 0.034 2   8.61
  206.5095  280.6769 -10.314  1527.58 0.073 2   9.35
  373.5594  281.0352  -9.248   615.36 0.096 2   9.12
  328.4170  284.7004 -10.690  2177.22 0.039 2   6.65
 3430.3311  288.3789  -9.595   754.19 0.036 2   4.88
  755.6113  291.1309 -13.056 20003.39 0.023 2  15.26
 3359.5068  290.7492 -11.142  3203.66 0.039 2   5.90
 1008.8026  291.7733  -9.618   886.99 0.036 2   8.10
 1201.9778  292.4451  -9.834   955.41 0.049 2  14.11
 1651.5664  297.4465  -9.631   709.02 0.065 2  20.93
  185.9721  298.4890 -11.545  4788.40 0.056 2   9.68
  903.3801  297.7039 -11.303  3974.63 0.033 2   9.00
  292.7114  299.7078 -11.163  3526.64 0.044 2  10.50
  106.7723  300.6081  -9.247   577.09 0.104 2   9.71
 1573.6100  301.3229 -18.017 86800.97 0.000 2 665.24
 2240.9482  300.7060 -12.541 13271.68 0.051 2  14.21
 2941.8875  305.2569 -11.975  8263.74 0.054 2   9.72
 2389.1978  305.4691 -12.898 16158.81 0.046 2  16.76
  511.4984  307.0452 -11.048  3069.26 0.038 2   8.64
 2255.8271  306.5997 -10.918  2760.56 0.038 2  11.97
   20.7583  308.0038 -11.475  5261.33 0.062 2   9.13
 1883.4222  310.4343 -11.838  5132.03 0.042 2  11.59
 2026.4575  311.5995 -11.289  3437.89 0.042 2   7.91
 1998.6675  313.4865 -11.936  6187.86 0.043 2  11.57
 1190.6290  314.1271 -11.658  5416.07 0.024 2  15.08
  252.8622  315.3635 -12.644 14174.40 0.045 2  17.29
 2901.2639  314.5242 -11.954  6904.16 0.045 2  11.77
  674.7900  316.3095 -10.833  2639.51 0.026 2   6.17
 3847.1821  317.1827 -10.466  1916.78 0.053 2   8.02
 1176.6378  323.0699 -12.198  9104.72 0.026 2  15.19
 1680.4015  323.1553 -13.382 24380.76 0.038 2  21.91
  359.2464  329.4012 -11.481  4509.65 0.043 2   9.73
 1588.3506  329.8193 -11.508  4565.81 0.047 2  60.10
 1478.9236  332.5727 -10.944  2570.04 0.046 2  14.71
 1785.7228  332.6430 -11.391  3875.88 0.047 2   9.10
 1055.5840  334.1843  -9.474   754.14 0.064 2   6.80
 2700.2595  333.9724 -10.052  1479.21 0.073 2   9.32
 3375.7185  335.0999  -9.905  1253.28 0.047 2   8.86
 3238.8201  335.5503 -13.684 33401.93 0.034 2  19.99
  931.1188  337.4828  -9.855   969.15 0.050 2   9.68
  297.5585  342.6127 -12.184  7640.72 0.029 2  10.09
  139.3672  345.3050  -9.519   771.39 0.083 2   9.24
  257.3429  345.4131 -10.317  1419.61 0.051 2   9.81
  938.7739  345.7079 -10.675  2222.68 0.027 2   8.41
 1380.2938  349.2018 -12.802 14815.76 0.032 2  15.82
  359.2624  351.0161 -10.187  1608.37 0.056 2   9.31
  314.0246  358.9111  -9.773  1134.21 0.073 2  10.18
  462.0063  358.9378 -11.801  7216.48 0.034 2   8.35
 2085.1443  359.4370 -10.542  1781.06 0.065 2   6.52
 2498.6526  361.8996 -10.553  2173.09 0.048 2   7.57
 2643.7734  367.8157 -11.501  5331.59 0.062 2  10.77
 1500.4204  369.5720 -11.782  5224.23 0.035 2  14.49
 2802.1304  371.7396 -10.266  1734.32 0.072 2   9.35
 3920.7625  372.8997  -9.681  1000.91 0.059 2   6.74
  605.9698  375.0444 -10.707  2658.72 0.039 2  11.70
 1765.2198  378.8014 -11.611  5464.02 0.039 2   8.17
  614.5674  381.2084 -11.210  3569.86 0.026 2  10.74
  981.7996  383.6241 -11.640  5147.85 0.021 2   9.11
 3187.2273  383.6517 -10.142  1415.09 0.047 2   8.83
 2557.1145  384.6593  -9.499   831.61 0.076 2   5.73
 3712.6587  384.9234  -9.800  1004.07 0.065 2   8.29
 3123.3333  387.6597  -9.280   636.25 0.058 2   6.38
 1431.5574  389.8395  -9.787   914.65 0.045 2   8.89
 1201.6143  390.8483 -10.293  1479.70 0.031 2   6.00
 1374.3229  393.0191 -10.597  2045.34 0.046 2   7.88
  305.4776  393.9405 -13.478 29141.48 0.035 2  15.78
  218.3384  394.7878  -9.969  1311.20 0.060 2  10.04
 2703.8447  395.0563 -11.778  7164.35 0.072 2  11.14
 1113.1667  395.8756  -9.382   736.03 0.073 2   7.53
 2257.9858  397.0723 -11.119  3884.55 0.049 2   8.98
   89.2786  401.1950  -9.467   809.85 0.083 2   4.26
 1611.0251  402.3085 -10.260  1554.10 0.046 2  14.16
  582.1249  404.2160  -9.442   762.29 0.074 2   8.08
 1404.7858  406.1083 -10.322  1717.06 0.047 2   7.53
 3409.2749  407.0766  -9.363   689.53 0.078 2   6.17
 2731.5754  411.1463 -10.040  1301.73 0.059 2   5.94
 1033.6221  413.1157 -11.643  5297.98 0.025 2   9.01
  190.0321  414.7800  -9.217   710.48 0.085 2   6.30
  226.8205  419.9092 -11.083  3595.74 0.035 2   8.78
 1984.0553  419.8920 -10.287  1728.03 0.053 2   5.87
 2012.7496  420.5913  -9.933  1031.53 0.052 2  12.87
  271.4328  426.7914 -10.661  2189.88 0.062 2   7.61
  363.5156  426.6915 -11.657  5045.00 0.040 2  10.62
 1806.0837  427.4086 -11.419  4081.59 0.040 2  12.37
 3770.0530  429.6553  -9.417   759.13 0.077 2  10.89
  816.5417  430.8926 -13.922 40621.04 0.014 2  19.44
 2873.3372  433.0211 -12.454 12505.45 0.048 2  11.25
 3304.8279  434.7944 -11.082  3423.32 0.046 2   5.80
  478.8096  436.3138 -12.945 18455.04 0.020 2  16.33
 1068.3295  435.7436 -10.667  2193.45 0.035 2   7.83
 2296.6792  438.8912 -11.391  4607.05 0.048 2  11.70
 3754.5452  439.1194 -10.586  1872.51 0.042 2  10.94
  311.6804  444.8590 -11.588  5408.17 0.031 2  11.24
 1100.5403  445.5259  -9.866   855.26 0.049 2  12.59
 2181.8123  447.1728 -12.410 12157.46 0.039 2  13.65
  361.4134  447.5961  -9.232   564.96 0.073 2   8.01
 1599.3787  450.9428  -9.554   784.35 0.060 2   8.12
 2702.9436  452.3960  -9.318   663.15 0.078 2   7.01
 1050.0127  452.5293 -11.830  5848.46 0.024 2  10.55
 2202.4866  453.1859  -9.758   916.89 0.060 2  11.69
 1365.7036  459.4064 -11.504  4210.80 0.037 2  10.89
  305.5339  462.0413 -11.160  3490.25 0.040 2  12.46
 2610.9395  462.9909 -11.210  4383.52 0.060 2   6.46
 2993.5847  466.8498 -12.283  9622.10 0.046 2  11.45
  746.3743  468.0246  -9.997  1224.30 0.044 2   8.85
 3728.2104  471.0889 -13.678 37296.41 0.031 2  18.21
 1931.6633  471.5567 -12.505  9861.84 0.042 2  13.80
 2201.2068  472.1701 -11.122  3640.12 0.044 2   9.74
  609.5579  477.8755 -11.966  6969.26 0.022 2   9.72
 1998.8160  478.2914  -9.363   680.44 0.061 2   9.36
  656.6273  478.9857  -9.832  1044.38 0.049 2   7.08
 1387.5750  478.9199 -10.889  2579.91 0.033 2   9.17
 2535.7014  479.1156 -11.490  5133.65 0.064 2   9.06
  437.5013  482.3193 -10.323  1516.98 0.048 2   6.79
 1735.9491  482.0601  -9.485   808.38 0.060 2   7.60
 2560.8958  482.0368 -11.965  8992.41 0.048 2  10.27
   48.4333  484.8353 -11.188  3778.94 0.059 2   8.32
 1497.0144  484.8404 -12.547 13259.77 0.032 2  14.25
 1470.4757  487.1607 -11.045  2678.76 0.044 2  10.97
 2433.6965  487.3483 -11.436  4554.69 0.055 2   7.96
 3072.6018  486.7773 -11.025  2948.51 0.039 2   8.29
 1676.6827  494.9130 -11.299  3774.19 0.052 2   8.38
  158.5910  497.4217  -9.745   884.61 0.064 2   8.26
  988.1517  498.3308 -10.323  1564.70 0.041 2   7.20
 2087.4150  500.7336 -15.091 74254.70 0.000 2  58.87
 1685.9863  505.8899 -10.361  1784.06 0.056 2  10.96
 1948.8846  508.9197 -11.210  3965.03 0.042 2  10.02
 1701.3286  511.8047  -9.362   636.94 0.067 2   7.91
 3260.0500  513.0090 -11.619  6226.68 0.040 2  10.41
 3466.3257  513.2020 -10.349  1670.27 0.047 2   9.50
  149.5838  515.6089 -10.689  1995.64 0.049 2   8.41
 1962.4011  520.8380 -10.920  2757.12 0.048 2  12.82
 1445.9655  521.8536 -10.654  2295.21 0.053 2   8.74
 1471.6036  521.7671 -10.181  1301.59 0.043 2   8.76
 3301.0620  523.0076 -10.502  2178.41 0.062 2   8.03
 1594.0356  523.6379  -9.464   710.91 0.066 2   8.11
 2584.0305  525.2668 -10.503  2113.89 0.053 2   9.58
 2618.1738  529.3041 -11.558  5224.02 0.054 2   8.51
  601.3441  529.9609 -10.946  2970.70 0.030 2  11.06
  961.5694  529.6763 -10.762  2094.65 0.045 2   7.50
 3256.4045  530.7555  -9.731   970.77 0.064 2   8.63
  584.8570  531.8805 -10.187  1578.97 0.039 2   9.20
  819.6688  533.8471  -9.721   949.71 0.053 2   8.61
  316.7945  537.6257 -10.688  2197.97 0.044 2   7.89
 1043.8741  538.6279 -12.068  7428.20 0.036 2  11.93
  816.1287  544.0763 -10.628  2317.58 0.037 2  11.98
 2303.5933  546.6990 -10.149  1248.44 0.047 2   7.64
  452.4524  547.7767 -10.062  1261.17 0.049 2   8.80
 3206.4143  549.9842 -11.973  7711.32 0.028 2   9.16
  696.7530  552.7324 -11.681  5659.24 0.016 2   9.21
 1480.2677  556.0009  -9.651   932.28 0.047 2   9.65
 2067.7795  556.2798 -10.079  1285.81 0.064 2  10.15
 1121.5028  556.5474  -9.397   597.47 0.058 2   6.65
  635.9207  559.3603  -9.853  1120.64 0.062 2   9.68
 1233.2317  560.4702 -11.236  3154.48 0.047 2   9.95
 1329.8940  561.2626 -12.495 11887.50 0.042 2  14.54
 2724.9702  566.5118  -9.574   772.80 0.098 2   8.04
 1998.3226  568.2100 -11.607  4973.30 0.046 2   8.12
 3384.8564  567.8744 -10.314  1836.07 0.042 2  10.49
  288.9315  569.2200  -9.568   958.34 0.079 2   7.09
 3892.5657  571.7750 -12.892 15228.77 0.022 2  15.57
  933.8265  579.9456  -9.961  1259.61 0.052 2   9.34
 2483.7607  581.5657 -11.191  3346.76 0.052 2   8.93
 3158.9524  581.6934 -10.996  3348.06 0.044 2   9.10
 2163.9392  583.3405 -11.218  3764.80 0.046 2  10.26
 2797.1785  583.0552 -12.761 17448.70 0.059 2  14.79
 2103.7798  584.8832 -10.416  1945.02 0.043 2   9.58
 3758.3953  584.8245 -11.120  3298.18 0.025 2  10.07
 3267.6899  589.3206 -10.754  2327.57 0.056 2  10.69
  583.2980  591.3262  -9.725   890.21 0.056 2   5.58
 3682.0100  590.7234 -10.258  1632.78 0.032 2   7.64
 1660.3289  592.3973 -10.169  1208.12 0.052 2  10.33
 2463.0461  592.2402 -11.410  4941.09 0.052 2   9.39
 1915.8555  594.2142 -10.046  1304.00 0.065 2   8.09
 3536.6812  596.0642  -9.446   752.57 0.081 2   8.86
  677.2191  598.3569 -10.482  1781.14 0.033 2  10.36
  856.0460  598.0194 -12.469 13001.31 0.015 2  13.50
 3167.0427  598.0916  -9.683  1070.93 0.052 2   9.41
 3803.6353  598.4579 -11.917  5972.35 0.030 2  10.77
 3911.4470  597.7519 -11.850  6329.46 0.030 2  12.00
 1318.7350  600.7614  -9.176   558.10 0.070 2  14.43
  928.8295  603.5752 -10.543  1799.23 0.032 2   9.68
 1657.3956  605.1105  -9.445   695.75 0.050 2   7.03
 1179.2828  609.3317 -11.303  3688.89 0.028 2   9.89
 1536.5177  610.4470 -10.474  1461.58 0.055 2  13.03
 2670.6223  612.0021 -12.113  8853.36 0.060 2  11.74
 3531.3853  613.9182 -11.088  3231.21 0.039 2   9.79
 2743.0295  615.7607 -10.178  1651.80 0.054 2   7.92
   23.4394  616.7667 -10.374  1772.27 0.066 2   7.85
 2703.2920  619.4172 -11.145  3146.18 0.055 2   9.21
  913.4655  619.6298 -11.811  5476.56 0.027 2   7.89
 1763.8550  620.2530  -9.625   831.87 0.073 2   7.98
 1313.7263  621.0664 -13.612 33437.04 0.033 2  25.08
 3017.1311  620.5276  -9.797   980.03 0.065 2   8.63
 1533.4840  622.2109 -12.793 13354.83 0.048 2  19.24
 3941.6519  622.5485 -13.081 16775.04 0.024 2  17.02
  392.3129  624.4619  -9.325   540.74 0.076 2   5.67
   69.5572  630.3055 -12.182  8863.94 0.049 2  10.34
 1845.7546  629.9868 -10.322  1697.49 0.058 2  13.49
 1323.4725  630.7385  -9.367   574.76 0.083 2  13.74
 3763.8845  632.1697 -11.184  3854.68 0.040 2   9.17
 1859.7991  633.1028 -13.858 42379.55 0.044 2  24.16
 3326.1292  635.1005 -12.886 18910.58 0.042 2  14.87
 3453.6909  635.6395  -9.396   631.59 0.064 2   5.91
 3719.4771  640.3107  -9.495   663.87 0.068 2   9.16
  626.9260  641.0131 -11.702  6335.87 0.027 2  10.12
 1101.0919  646.8995  -9.902  1187.27 0.058 2   8.50
  521.2102  649.2792 -12.604 13369.13 0.015 2  15.88
 2413.4045  648.7597 -10.250  1524.75 0.071 2   9.27
 1280.7919  650.0161 -11.286  4059.23 0.036 2  13.16
 2206.0513  651.1060  -9.446   794.58 0.078 2   5.11
  837.0972  652.5044  -9.762   862.60 0.057 2   7.55
 2668.2690  654.5537 -10.158  1355.23 0.061 2   8.79
  118.0245  661.4316  -9.558   755.42 0.070 2   9.98
  172.9923  661.4838 -10.842  2477.85 0.044 2   7.60
 3169.1331  665.8158 -12.993 20907.35 0.045 2  15.81
 3281.4675  667.3378 -10.712  1939.38 0.059 2   8.72
  387.8121  667.6258 -10.340  1653.48 0.041 2   7.90
 1359.4501  669.2255  -9.159   502.30 0.062 2   9.22
 1619.9958  671.4480 -10.776  2274.15 0.046 2   8.07
  179.8821  672.4551  -9.846  1073.42 0.069 2   9.46
 1513.9080  672.0109 -15.188 74423.59 0.000 2  63.74
  717.2297  676.7465 -10.473  1895.91 0.041 2  10.64
 3055.4343  676.8461 -12.590 13101.94 0.037 2  14.95
  412.8284  678.5195 -11.151  3232.18 0.027 2  10.66
 3666.5588  679.8220  -9.928   999.88 0.038 2   9.62
 3680.4797  680.8352  -9.848   999.16 0.049 2   9.52
  485.1003  682.2792  -9.906  1157.16 0.039 2   8.96
 3742.1638  682.4087 -11.790  5848.84 0.032 2  11.48
 1241.2687  695.1143 -11.839  6561.66 0.026 2   9.65
 1264.6381  706.3002  -9.311   631.99 0.075 2   9.27
  449.6320  707.4117 -11.827  5923.50 0.024 2   9.42
 1135.3861  707.5041 -12.542 10389.43 0.029 2  14.19
  835.6842  709.7289 -12.131  7922.11 0.030 2   9.60
 2656.0459  709.7835  -9.915  1202.95 0.076 2   7.54
 3684.2019  710.3911  -9.751   929.42 0.047 2  10.32
 2983.7205  711.4094 -10.303  1514.97 0.048 2   8.55
  925.7211  716.7735 -11.859  6433.52 0.032 2  10.38
  245.2233  718.5173 -10.974  2763.88 0.036 2   8.73
  103.6380  720.2595 -12.134  9084.00 0.037 2  10.76
 3262.8701  719.6358 -12.161  8783.30 0.032 2  11.46
 2892.5461  721.0239 -10.118  1291.28 0.075 2   7.04
 1128.2417  723.4007 -10.687  2048.38 0.047 2  11.17
 1691.1184  722.9635 -11.720  6249.31 0.036 2   8.99
 1223.9658  726.4204 -11.199  3269.93 0.041 2   8.98
 3437.2417  726.5369 -10.053  1158.28 0.055 2   9.22
 4006.1667  726.9321 -10.505  2120.12 0.038 2   6.03
 1535.5092  731.1083  -9.830   925.34 0.062 2  12.17
 3672.6113  737.1107 -10.586  1947.29 0.053 2   7.77
 3026.3945  739.7855  -9.519   796.47 0.081 2   5.65
 4046.4358  740.0507 -11.231  3695.48 0.041 2   9.89
  137.6938  743.9149 -12.172  9572.73 0.030 2   9.72
   81.5448  745.3523 -10.227  1397.31 0.054 2   8.00
  849.3899  745.9150 -11.070  3137.87 0.029 2   8.45
 2373.6174  746.6477 -10.745  2021.39 0.062 2   7.95
 2427.8247  746.6812 -12.961 18683.81 0.044 2  17.40
 1163.7275  748.2391  -9.136   567.54 0.061 2   9.97
 1564.1648  750.7109 -11.883  6745.68 0.045 2  13.63
 2934.5959  752.4073 -12.386  9881.39 0.043 2  12.37
 3958.5769  753.0994 -12.622 13072.17 0.024 2  13.85
 3680.4646  755.2593 -10.764  2029.94 0.053 2   7.68
 1394.2684  756.6154 -11.175  3175.75 0.047 2  10.35
 3828.1865  757.0228 -11.840  7253.41 0.021 2  10.03
  427.7009  757.6799 -10.148  1330.38 0.042 2   8.30
 1188.7183  766.4099 -10.279  1385.57 0.055 2  10.31
 3779.7490  768.8751  -9.335   652.94 0.090 2   6.63
 3103.4307  770.3989 -10.149  1091.40 0.070 2   8.94
 3089.2795  770.5593  -9.165   554.59 0.066 2   9.39
 2375.9045  776.1514 -11.281  4485.42 0.039 2   9.25
  256.4817  778.9103  -9.748   955.61 0.076 2   8.32
 1959.6836  783.8270 -10.025  1251.35 0.043 2   9.26
 2331.9006  783.9800 -11.052  3580.46 0.053 2  10.07
 1778.3927  785.0256  -9.998  1107.53 0.057 2  10.38
 1554.7505  786.6945 -10.939  2778.16 0.039 2  14.54
  303.2964  788.0710 -12.478 12647.27 0.017 2  15.19
 2817.5681  789.0651 -12.025  7733.64 0.055 2  13.36
 1933.6498  792.3605  -9.378   636.71 0.077 2   9.33
 2658.2830  792.3885 -10.545  1853.46 0.070 2   5.40
 2541.5879  793.6735 -15.260 73223.94 0.000 2  68.17
  199.6315  795.4575 -10.637  1946.02 0.033 2   7.05
  271.1151  795.2764 -10.916  2939.61 0.024 2   9.90
 2907.6599  794.8770 -13.480 30078.01 0.049 2  18.23
 1766.3082  802.5653 -11.085  2844.14 0.054 2   9.76
 4030.7463  803.4915 -10.397  1611.47 0.050 2   8.02
 1332.0900  803.6223 -10.875  2579.56 0.046 2   9.03
 2828.3386  808.3259 -12.217  8563.69 0.052 2  17.17
  320.7141  815.2371  -9.724  1000.77 0.064 2   7.69
 3277.9917  814.7076  -9.982  1265.73 0.076 2  10.32
  886.3110  818.5619  -9.317   602.50 0.044 2   9.84
 2825.0078  820.6353 -12.683 14905.37 0.056 2  15.00
  421.2973  821.9115 -11.934  7630.63 0.018 2  10.57
 2488.3958  822.3666 -11.439  3766.10 0.056 2  12.44
 2939.8669  821.6206  -9.748   933.56 0.072 2   9.88
 3977.2886  823.0341 -10.665  2374.06 0.034 2   6.64
 2226.6697  824.4951  -9.721   832.17 0.071 2   8.63
 2389.5908  824.9096  -9.279   619.66 0.107 2   8.20
 3321.0095  824.5476 -10.601  1978.02 0.062 2   9.07
 1244.1547  827.1162 -11.309  4207.57 0.041 2   8.75
 3179.6218  827.7733 -11.878  6328.74 0.044 2  12.21
 2888.2351  829.8294 -12.249 10375.83 0.051 2  10.71
 2550.9146  831.2384 -11.945  7983.22 0.060 2  17.76
 3489.4636  831.2414 -11.487  4089.65 0.039 2  10.70
 1568.1135  833.3827 -12.234  8780.39 0.039 2  14.46
  959.5720  834.9005 -11.767  5681.67 0.035 2  10.56
 1314.6984  836.0869 -12.344 10400.70 0.039 2  11.11
  758.5666  836.6647  -9.590   736.89 0.060 2   9.35
 3609.4619  839.5052  -9.996  1020.97 0.046 2   9.22
 3502.9307  840.6623 -11.161  3494.08 0.034 2  10.59
  452.3582  847.3373 -12.152  7836.23 0.016 2  14.47
  855.2181  847.6389 -10.933  2731.27 0.033 2   9.01
 2367.5632  847.9779 -13.464 27637.81 0.051 2  22.18
  344.2649  849.6356  -9.504   752.50 0.058 2   6.94
  913.4387  850.7269 -13.368 24118.54 0.027 2  20.22
  828.3284  851.9938  -9.837  1076.22 0.054 2   7.60
  141.7635  857.2939 -11.175  3723.90 0.030 2   7.76
 3813.4050  856.8360 -10.596  2162.09 0.044 2  10.06
 3295.8545  857.5743 -10.574  1887.73 0.057 2  12.15
  921.3610  858.7994 -11.549  4895.01 0.036 2  16.92
 3268.5759  859.5688 -12.505  9494.77 0.041 2  14.91
  742.0358  861.0207 -11.687  6132.77 0.039 2   9.69
   76.2531  863.0018 -10.007  1392.96 0.068 2   7.68
 4032.3496  862.9421  -9.641   945.27 0.079 2   8.14
 3822.4602  866.3265  -9.141   504.07 0.090 2   8.29
 1362.4320  867.0621  -9.518   687.79 0.083 2   8.24
 2966.0493  868.1395 -10.956  2920.90 0.239 2   9.09
  624.4937  869.9213  -9.976  1138.64 0.037 2   7.92
  495.3499  871.8640 -10.912  2781.41 0.036 2  18.61
 1531.7186  874.4683 -10.546  1740.59 0.047 2   8.24
  828.0893  874.9869 -10.957  3171.38 0.044 2   8.35
 3861.4360  876.6893  -9.672   849.04 0.052 2   9.58
 3279.3652  878.2128 -13.072 19090.86 0.044 2  16.84
 3022.3459  879.2968  -9.834  1008.69 0.057 2   7.85
 2262.8772  881.3787 -11.280  3852.26 0.060 2  10.70
  345.1973  887.2370  -9.711  1022.73 0.065 2   8.81
 2091.3462  890.6794 -10.487  1806.27 0.050 2   7.26
  280.6249  891.5856 -11.319  3510.35 0.024 2  10.31
 1980.6342  892.0108  -9.920  1073.83 0.070 2   8.89
  746.3591  893.8143 -10.460  1793.62 0.046 2   9.60
  109.2397  894.9404 -10.710  2604.08 0.045 2  10.07
 2616.0835  896.1013  -9.641   964.32 0.083 2   8.31
 2888.1692  896.3759  -9.591   857.38 0.067 2   7.95
 3082.0042  895.6544 -11.933  7247.87 0.053 2  11.74
 3967.7800  898.4456 -10.728  2143.38 0.030 2   5.73
  524.2900  900.7529 -15.934 78444.24 0.000 2 111.18
   63.7065  904.0561 -11.452  5021.40 0.043 2  10.83
 3628.5422  904.0517  -9.308   602.37 0.074 2   5.82
  723.2107  906.5897 -10.745  2271.78 0.032 2   8.41
 3231.4773  908.8621 -12.995 17398.78 0.050 2  17.88
 4019.3118  908.4648 -11.223  3269.75 0.027 2   7.71
 3375.6294  909.5767 -11.248  3023.00 0.053 2   8.72
  378.8798  910.6373  -9.999  1140.81 0.049 2  10.80
 1673.4635  910.9955 -11.072  2952.96 0.041 2   8.56
  872.8297  913.8686 -10.467  1985.31 0.039 2  10.97
 1010.4738  915.7363 -10.924  2518.51 0.035 2   9.14
 3919.3540  917.4525 -11.294  3353.75 0.032 2   8.68
  404.0469  920.9761 -10.903  3063.14 0.037 2  10.18
 3117.8213  921.1143 -10.341  1728.71 0.082 2   9.32
  550.6746  926.2515 -10.568  2046.48 0.040 2  30.06
 1861.1530  925.5455 -11.930  6573.64 0.039 2   9.95
  320.5342  929.6420 -11.918  6210.77 0.020 2   9.77
 1277.3929  931.3057 -10.276  1372.02 0.048 2   9.02
 1714.5187  931.1804  -9.646   860.98 0.074 2   9.49
 1702.3208  935.2645 -10.643  1964.84 0.056 2   7.78
  672.4326  936.2703 -10.037  1081.49 0.047 2   9.60
  873.9205  936.1440 -11.966  7885.36 0.037 2  11.60
  492.1704  936.6234 -11.232  3782.80 0.028 2  16.47
  562.5057  936.9928 -12.604 12267.77 0.023 2  21.60
 1165.4675  937.1910  -9.315   601.42 0.093 2   7.63
 2456.7468  938.3030 -12.653 14013.79 0.048 2  16.87
  748.6324  939.3049 -12.601 12741.03 0.021 2  16.22
 2123.5269  940.4968 -11.819  4997.21 0.053 2   8.68
 2260.1868  941.6736  -9.643   886.82 0.078 2   7.38
 2067.7031  942.8360  -9.537   815.95 0.063 2   8.69
 2633.8542  943.1835 -10.279  1724.53 0.065 2  17.71
 1142.3014  947.0137 -10.290  1651.23 0.027 2   8.21
   66.0933  951.7695  -9.292   722.96 0.100 2   4.84
 4014.7715  955.9388 -11.749  6419.11 0.031 2   8.56
 1939.2313  957.4173 -11.747  5176.52 0.047 2  11.77
 2990.4453  957.5397 -11.248  3255.81 0.056 2  12.11
 3112.1025  958.7249 -12.482 12414.67 0.052 2  14.48
 1263.8319  959.5967 -10.671  1722.65 0.347 2  12.27
 1180.6661  961.2149 -10.075  1314.07 0.044 2   7.93
 3792.9746  962.0936  -9.681  1060.23 0.062 2   8.97
 3124.7373  963.3080  -9.604   845.05 0.080 2  10.43
 3307.4824  963.3376 -12.941 14753.72 0.053 2  14.28
  863.6804  963.6074 -11.058  2793.34 0.035 2  11.05
 1823.0791  964.6852 -11.268  3910.72 0.046 2   9.55
 2500.7053  966.3232  -9.924  1127.37 0.064 2  10.32
 1531.5581  970.2870 -11.412  3981.35 0.038 2  11.23
 3994.7927  969.7777  -9.275   650.38 0.068 2   9.39
 2845.1865  970.8262 -10.354  1857.35 0.084 2   6.04
   25.5891  974.9731 -10.490  1910.81 0.044 2   5.80
 2239.2253  975.2039 -10.164  1468.37 0.050 2   7.98
 2628.3940  976.3341 -14.429 65289.17 0.000 2  52.77
 2064.2908  977.0460  -9.479   806.77 0.061 2   6.81
 2785.8970  977.3853 -10.079  1330.07 0.067 2   8.82
 2649.8152  978.0144 -10.669  2448.31 0.065 2  20.66
 3017.2261  977.6210 -14.182 54778.78 0.054 2  26.51
  723.1172  981.3750  -9.696   854.14 0.055 2   9.10
 2945.1372  984.1796 -10.867  2781.94 0.062 2   8.80
  936.7693  987.6959 -10.498  1792.36 0.048 2  10.99
 1837.6746  987.7577 -11.222  3394.16 0.048 2   9.29
  805.0959  991.2101 -11.059  3262.48 0.045 2  15.94
 1270.9824  991.2797 -11.599  5278.53 0.047 2  12.97
 2501.6819  990.6887 -11.452  4315.55 0.052 2  16.38
 2623.1641  992.5729 -14.067 48648.03 0.056 2  49.93
 2570.5591  995.4470 -16.281 77012.23 0.000 2 155.32
 3451.2468  994.9094 -11.256  4053.25 0.053 2  11.12
 2118.8994  995.7679 -12.167  9016.37 0.047 2  12.17
  112.9180  998.0672 -11.550  5925.49 0.034 2  10.50
 1077.9833  998.7088 -11.636  5496.13 0.046 2  16.61
 2996.7383  999.0676 -11.080  3449.96 0.064 2  12.79
 1573.4818 1000.2480  -9.589   726.08 0.067 2  15.36
 1067.3302 1003.4309 -12.487  9728.91 0.040 2  16.26
  101.3660 1003.8331  -9.773   981.04 0.063 2  10.81
 1804.5656 1004.3697 -11.954  6269.45 0.050 2  10.36
 2792.4065 1003.4258 -11.235  3055.33 0.057 2  10.31
 3620.9517 1003.6659 -10.403  1807.05 0.051 2   7.69
 1813.0162 1005.0421 -11.209  4049.61 0.049 2  13.84
 3662.7847 1006.0762  -9.340   717.84 0.077 2   8.87
 1094.8488 1008.6536 -11.963  7094.38 0.036 2  14.55
 1409.9409 1008.9214 -10.071  1372.20 0.051 2   7.86
 3241.6589 1011.3546 -10.168  1316.29 0.060 2   8.17
 1610.8342 1014.9498  -9.786  1016.20 0.058 2   9.64
 1057.8735 1016.4183 -11.440  4215.71 0.041 2  12.51
  680.1018 1020.3084 -10.758  2442.18 0.046 2  10.94
  751.7832 1022.5368 -11.031  2765.85 0.042 2  21.48
 2254.7832 1023.5193 -11.086  2724.11 0.069 2   8.24
 1149.3622 1024.8586 -10.595  1984.73 0.087 2   8.73
 2550.7041 1025.7019 -10.184  1281.02 0.153 2  25.12
   34.0820 1029.4027  -9.403   753.58 0.096 2   9.96
  782.2600 1028.5278 -16.068 76267.56 0.000 2 120.83
 1966.5131 1028.8734  -9.999  1071.55 0.068 2   7.12
 2547.2554 1029.4967 -10.394  1524.07 0.090 2  23.73
 1682.4874 1032.1991 -10.234  1315.71 0.056 2   7.43
  279.5132 1036.8527 -10.833  2473.86 0.023 2   9.75
   55.2989 1037.9446 -10.300  1724.97 0.045 2   8.06
 1537.1240 1039.3960 -15.979 76986.06 0.000 2 113.70
  992.9550 1045.5231  -9.406   647.58 0.080 2   8.88
  393.0156 1047.1188 -11.380  4863.65 0.032 2  10.17
  359.2913 1051.7443 -12.708 15272.63 0.017 2  16.44
 1802.7610 1053.2273 -11.283  3821.38 0.066 2  13.33
 1267.4070 1054.9437 -10.636  2130.18 0.051 2   9.05
 1944.3644 1055.9801 -11.803  6105.24 0.046 2  10.12
 1512.8369 1059.8082 -10.081  1376.49 0.056 2  25.95
  511.9211 1061.2583  -9.503   821.31 0.067 2   8.32
 2036.8853 1062.9474 -11.868  6960.69 0.053 2  10.28
  425.7400 1065.4169 -13.316 24557.62 0.016 2  16.80
   67.0256 1066.2892  -9.893  1168.75 0.049 2   7.41
 2400.3855 1065.9103 -10.558  1996.60 0.063 2   7.39
 3124.2241 1068.8114  -9.217   613.69 0.075 2   5.06
  591.6489 1070.2461 -10.320  1658.51 0.044 2  12.64
 3735.4634 1069.5703  -9.461   653.12 0.066 2   8.15
 1834.6396 1071.7252 -11.462  4082.81 0.048 2  10.27
 4056.5684 1073.5557 -11.557  4148.65 0.032 2  11.28
 1000.1413 1076.0188 -11.212  3944.19 0.032 2   8.68
  354.4430 1077.3428  -9.490   692.99 0.079 2  10.04
 1044.6234 1077.5914 -10.890  2287.23 0.040 2   9.22
 1235.3076 1078.2284 -10.943  2625.86 0.052 2   9.79
 2264.9297 1079.8303 -11.104  3443.61 0.066 2   9.14
 3490.0994 1080.7797 -10.864  2900.93 0.047 2   8.59
  627.8760 1081.5812 -11.515  4659.22 0.021 2  13.73
  895.0754 1082.4133 -10.614  2032.62 0.037 2  10.61
  163.0944 1088.8262  -9.575   923.24 0.061 2   8.08
  141.3882 1090.8020 -10.727  2407.46 0.035 2   7.51
 2071.3748 1091.2465 -12.159  7854.62 0.062 2  11.33
  831.3864 1094.5107  -9.482   631.65 0.060 2   8.09
 3413.1531 1094.8224 -11.607  5670.51 0.051 2  11.69
 3342.8818 1095.9872 -11.517  5359.94 0.048 2  12.31
  336.0488 1097.4791  -9.855   997.01 0.070 2   9.32
 1637.9727 1097.6533 -13.958 43394.25 0.049 2  22.48
  365.5562 1101.1957 -10.815  2570.84 0.050 2  10.64
 1320.8884 1102.9005 -12.467 12226.78 0.057 2  15.25
 3388.3411 1102.9880 -11.013  3060.83 0.058 2   8.44
  789.5502 1107.0057 -11.071  3136.34 0.033 2  11.01
  641.2749 1107.5420 -11.271  3469.46 0.032 2   9.83
 3006.6035 1109.1550 -10.629  2062.08 0.060 2   8.63
 3676.4736 1109.8688 -10.823  2457.26 0.036 2  12.46
 3686.5901 1110.2034  -9.942  1023.35 0.064 2   8.42
  980.2524 1113.6123  -9.505   789.88 0.079 2   6.89
 2605.6731 1114.1776 -10.308  1625.21 0.069 2   8.67
 2302.9062 1115.1570 -10.314  1669.28 0.093 2   8.73
  687.1866 1122.1979  -9.200   653.30 0.073 2   7.58
 2355.7031 1121.6571 -10.799  2251.42 0.056 2   8.16
 3924.9272 1121.9514  -9.613   966.02 0.090 2   4.88
  948.2597 1123.2052 -10.553  1976.04 0.039 2   9.75
 3010.6626 1129.8397 -11.571  4859.59 0.066 2   8.33
 3363.9668 1131.6989 -11.773  6305.89 0.047 2   9.80
  177.4003 1133.6678 -10.532  1928.84 0.038 2   9.27
 1734.5712 1133.7074  -9.665   768.17 0.065 2   7.14
 2726.2883 1134.4680 -10.020  1033.40 0.088 2  10.26
 2249.4795 1136.1992 -10.451  1633.59 0.053 2   9.10
 2264.3323 1137.2390 -10.071  1245.73 0.059 2   9.45
 2757.5671 1141.0359 -10.993  2869.73 0.065 2  10.89
  538.8573 1144.4407 -10.723  2252.10 0.041 2   6.91
  144.6651 1145.8534  -9.470   761.49 0.092 2   9.45
  849.5615 1146.4019 -10.419  1541.61 0.064 2   8.52
 1636.3540 1145.7869 -12.733 14196.89 0.048 2  15.23
 2785.9180 1148.4581  -9.848   980.42 0.085 2   8.13
  262.8052 1150.0660 -12.899 19645.33 0.017 2  15.05
  515.1821 1149.8971  -9.696   987.19 0.065 2   5.45
 2719.7964 1151.4800 -12.989 17118.54 0.061 2  17.61
  676.5872 1153.5426 -10.676  1894.25 0.038 2  17.62
 1970.3165 1154.2913 -12.764 13917.38 0.041 2  15.15
 2342.3784 1157.1559 -11.966  6902.96 0.055 2  12.09
 3397.1226 1162.8464 -10.145  1482.33 0.071 2  10.16
 3667.7849 1164.3689 -10.164  1346.31 0.059 2   8.91
    8.9271 1167.0491 -10.065  1511.96 0.054 2   8.76
  667.4858 1169.1417 -10.858  2453.75 0.033 2  35.14
  827.7847 1174.3052  -9.671   903.36 0.083 2   9.85
 3243.6001 1174.2305 -11.046  2927.65 0.067 2   8.26
 3735.7952 1176.6705 -11.386  3959.67 0.054 2  10.31
   24.8085 1177.7838  -9.177   654.27 0.096 2   8.76
 2750.5466 1178.5242  -9.139   504.91 0.119 2   9.19
 2094.3230 1179.8693 -11.628  5233.30 0.057 2  12.52
 3392.7561 1180.5753  -9.529   708.22 0.091 2  10.04
 3590.3987 1180.7307 -13.616 31473.58 0.043 2  18.87
 1283.5347 1185.3147 -11.083  2846.75 0.053 2   9.19
 1980.1559 1187.4419 -10.176  1215.38 0.071 2  11.62
 3213.8350 1186.7692 -10.060  1302.47 0.068 2   9.28
 3880.1938 1187.3694  -9.676   865.43 0.060 2   5.91
 1414.1635 1193.2654 -13.514 29958.21 0.048 2  17.33
  665.2020 1194.3121 -16.254 78236.29 0.000 2 167.38
 2654.6953 1193.5050 -11.664  3584.05 0.235 2   9.71
  937.4983 1201.3657  -8.961   812.10 0.403 2   9.40
 2859.8398 1202.4180 -10.946  2771.47 0.061 2  10.26
 3951.1299 1203.6724 -10.858  2634.09 0.053 2   5.60
 1764.8568 1205.2605  -9.684   799.74 0.210 2   7.47
 2138.0884 1204.9755 -13.252 24819.77 0.062 2  21.82
 3986.9385 1208.9358 -10.709  2665.46 0.033 2   7.54
 1368.8650 1210.1796 -12.431 12129.38 0.037 2  15.69
 4021.8994 1209.8848 -10.109  1531.71 0.055 2   7.61
 3108.2083 1210.5836 -12.077  7720.13 0.049 2  12.30
 1144.4364 1214.3285 -11.019  2535.29 0.057 2   8.81
 1523.0242 1213.5923  -9.310   583.07 0.070 2   8.22
 1840.5358 1215.3005  -9.356   630.58 0.089 2   6.49
  429.6018 1215.9349 -10.065  1278.40 0.046 2   9.77
 3071.1248 1217.8115  -9.792  1106.90 0.085 2  10.92
 2930.5544 1218.6470 -10.505  1605.60 0.058 2   8.10
  339.7000 1219.7577 -10.346  1687.06 0.049 2   7.57
 2800.5510 1221.9271 -14.537 67642.25 0.000 2  39.19
 1243.1958 1223.9384 -10.407  1829.45 0.055 2   8.05
  517.1749 1225.4841  -9.513   744.77 0.062 2   9.29
  283.6087 1230.1036 -10.902  2804.18 0.038 2   7.13
  559.0891 1230.3378 -11.589  5361.22 0.033 2  10.69
 1270.1781 1232.6215 -11.952  7128.52 0.034 2  10.76
 1470.5352 1233.1906 -12.203  8066.68 0.086 2  12.43
 3854.2134 1238.2544 -10.035  1271.89 0.054 2   6.43
 1413.6556 1239.2455  -9.605   860.94 0.060 2  13.11
 1642.0055 1239.2833 -11.431  4421.46 0.062 2   8.80
 1957.5496 1241.5699 -11.689  4480.67 0.052 2  10.47
  842.6796 1249.1122 -10.534  2074.86 0.044 2   6.89
 1223.7794 1249.5081 -10.055  1144.96 0.060 2   8.45
 2103.3506 1248.4592 -12.258  7714.22 0.051 2  14.77
  221.3526 1249.7751  -9.651   887.23 0.085 2   6.82
 1419.2928 1250.7968 -10.082  1309.57 0.072 2  13.40
 3914.8779 1251.2323 -13.224 24445.62 0.039 2  17.65
  316.0933 1254.2823  -9.380   768.15 0.089 2   8.87
   29.0856 1257.1921 -10.518  2170.18 0.038 2  10.89
  166.5124 1258.1227  -9.308   672.41 0.096 2   7.17
  450.6961 1258.8958 -11.776  6573.88 0.020 2  10.42
 2134.9893 1259.0348 -11.776  6523.47 0.058 2  11.92
 2351.9946 1259.4456  -9.928  1050.09 0.084 2   8.26
  606.6007 1265.7832 -12.153  8200.05 0.030 2  15.74
 2623.2874 1266.7625 -12.150  8761.57 0.059 2  12.49
  852.5867 1269.2458  -9.888  1065.79 0.047 2   8.52
  888.3761 1271.4070  -9.659   743.22 0.065 2   7.43
  412.5334 1273.9218 -10.873  2525.54 0.044 2   9.14
 2396.1458 1273.6504 -10.852  2536.06 0.074 2   8.81
 1330.6635 1276.2039 -10.489  1873.45 0.049 2   8.60
 1102.5621 1277.4846 -10.179  1249.25 0.058 2   8.96
 2516.0398 1280.1659 -11.858  7217.95 0.062 2  11.05
 2063.1074 1280.6743 -11.216  3401.75 0.113 2  18.65
 1807.7151 1283.2360 -10.792  2458.98 0.057 2   8.08
 2413.5461 1283.4404  -9.535   743.60 0.077 2  10.66
 3815.7620 1283.1005 -10.072  1364.38 0.061 2   7.99
 4019.5098 1283.5593 -10.807  2061.43 0.027 2   8.94
 2722.4263 1284.7535 -12.272  9165.13 0.061 2  13.14
 2882.5679 1285.1628  -9.539   765.79 0.067 2   6.73
 2431.0876 1285.6229  -9.721   858.84 0.086 2   8.36
 3769.5398 1289.4548 -11.015  2536.10 0.036 2   7.61
 2195.1575 1290.3213 -10.716  2183.60 0.074 2  10.26
 2753.1372 1291.4352 -10.933  2596.12 0.055 2   8.70
  345.3420 1291.7523 -10.078  1280.14 0.055 2   8.73
 3390.2156 1292.8010 -11.791  6474.35 0.049 2  11.79
  536.0471 1293.9229  -9.981  1368.65 0.072 2  12.82
 3525.5667 1294.0260 -11.107  3150.84 0.046 2   9.45
  147.8118 1295.2777 -11.581  5490.38 0.026 2  11.04
 1184.7620 1300.8718 -12.160  9126.42 0.038 2  11.40
 3382.7842 1300.6202 -11.405  4022.84 0.053 2  11.24
  551.4739 1301.9543 -13.351 25163.81 0.020 2  19.40
  309.9595 1303.0598  -9.575  1025.19 0.071 2   8.68
   83.0601 1306.5106 -10.647  2068.77 0.038 2  13.10
 2621.4468 1309.3063  -9.317   558.87 0.101 2   6.84
  458.3449 1309.7596  -9.971  1177.30 0.066 2   9.05
 1972.0734 1310.6302 -10.141  1273.93 0.072 2   9.09
 2088.8210 1311.5236 -15.957 75174.37 0.000 2 116.38
 2963.0408 1311.5914 -10.441  1758.59 0.075 2   8.27
 2507.7625 1315.3909  -9.379   659.94 0.079 2   9.46
 1339.0839 1316.7274  -9.565   846.06 0.095 2   6.47
 3364.4937 1318.3008 -12.312  8716.83 0.042 2  12.93
  150.4265 1319.7871 -10.731  2342.16 0.039 2   9.90
 2023.8325 1319.7786 -12.886 16992.90 0.046 2  15.89
 1264.4020 1320.6068  -9.135   523.89 0.095 2   8.19
  486.4544 1321.9357  -9.457   669.94 0.074 2   8.45
   75.4144 1325.0118 -11.288  3919.37 0.039 2  22.70
  343.1166 1328.8997 -10.327  1833.72 0.044 2   9.51
 1903.8020 1329.6141  -9.364   612.12 0.093 2   7.11
 3132.9392 1330.7997 -11.619  5851.15 0.050 2  10.39
 2655.8713 1334.8153 -10.524  2031.43 0.095 2   6.36
   24.0379 1338.9644  -9.642   969.51 0.067 2  17.07
 1047.4812 1341.4022  -9.551   707.30 0.071 2   5.90
 1240.1711 1340.7480 -11.522  4955.05 0.059 2  11.40
 3138.0720 1341.3131  -9.475   817.42 0.077 2  13.43
 2341.1875 1342.1428  -9.737  1002.74 0.106 2   6.32
 1577.3466 1342.9821 -13.407 26799.01 0.047 2  18.78
 1304.1591 1344.1328 -10.416  1889.12 0.052 2   9.40
 2375.7234 1345.9955 -10.633  2222.79 0.081 2   7.54
   67.0750 1348.8468 -15.452 75120.80 0.000 2  84.57
  149.1234 1350.7319 -11.371  4551.01 0.076 2   9.75
 3250.4885 1358.7001 -10.024  1119.95 0.071 2   6.26
 2027.3441 1361.9075 -11.509  4595.19 0.059 2  13.61
 3356.8120 1374.3951  -9.348   680.87 0.085 2   8.97
 1471.1057 1376.5474 -11.717  5526.71 0.048 2   9.62
  949.3462 1378.6665  -9.678   888.23 0.053 2   7.57
  229.1080 1383.1030 -12.623 15404.50 0.021 2  12.47
 4070.0950 1382.5627 -14.166 53352.57 0.031 2  23.67
 1562.6272 1383.6115 -11.881  5525.49 0.052 2  15.33
 1911.3239 1384.2717 -11.569  4727.03 0.055 2  11.90
 3018.7441 1386.8032 -13.010 19014.93 0.053 2  14.77
  965.5457 1391.7257 -11.385  3764.96 0.036 2  11.79
 3583.1741 1392.1902 -11.039  3309.19 0.056 2   8.56
   20.9808 1394.1608 -12.595 14647.61 0.042 2  17.74
  529.2877 1394.1271 -11.624  5624.94 0.030 2   8.98
 2194.1145 1394.6841 -10.083  1304.20 0.071 2   5.28
 1534.1210 1396.8884  -9.826  1125.87 0.096 2  13.26
 2340.8672 1399.0100 -11.473  4885.86 0.062 2  11.96
 3386.1072 1398.6897 -11.265  3968.58 0.063 2   9.45
 2227.9075 1399.9286  -9.469   808.76 0.076 2  11.35
  816.2054 1401.6001  -9.706   905.77 0.068 2   9.44
 1512.5581 1408.0222 -12.777 14763.08 0.044 2  15.40
  831.0518 1409.0262 -11.815  7374.14 0.032 2  11.92
 1110.3214 1408.8594 -13.456 29133.89 0.044 2  18.03
 2266.7566 1409.0753 -12.044  8084.11 0.065 2  12.52
 3186.4355 1408.8422  -9.917  1089.37 0.061 2   9.17
 1182.1388 1414.1910 -12.608 13766.26 0.044 2  12.74
 3397.7832 1416.2607  -9.562   881.69 0.069 2   8.02
  538.5338 1416.5551  -9.747   787.95 0.062 2   6.65
 2041.5942 1417.7889  -9.846   909.44 0.086 2   8.29
 4084.4182 1417.5537 -11.034  2776.77 0.041 2  11.08
  179.4857 1422.6194 -12.526 10946.93 0.025 2  11.82
  489.1685 1423.2611  -9.980  1281.71 0.051 2  12.07
  876.6285 1423.2460 -11.069  3194.51 0.033 2   9.67
  408.1017 1431.2926 -10.293  1640.65 0.040 2   8.45
  570.2181 1434.1023 -10.880  2883.19 0.044 2   8.61
  760.8704 1434.4642 -11.849  6280.59 0.040 2   9.68
  488.9732 1435.1982 -11.940  8171.53 0.025 2  14.73
 1572.2114 1435.5784 -14.295 56449.31 0.060 2  27.09
  711.6339 1437.0814  -9.536   899.64 0.059 2   7.10
 2301.7292 1440.0295 -11.042  3235.37 0.068 2  11.88
 3209.8499 1441.0553 -13.451 30885.18 0.049 2  20.65
 2770.3743 1442.9133  -9.680   907.45 0.064 2   8.47
 1710.9845 1443.8090  -9.523   783.72 0.101 2   5.72
 3027.1499 1443.6080  -9.376   642.55 0.112 2  10.58
 1245.5391 1445.1560 -10.701  2182.47 0.050 2   8.80
  227.3012 1446.2572 -10.804  2508.47 0.031 2   8.84
 3013.8972 1447.2906  -9.609   954.74 0.078 2   8.01
 2081.4094 1453.1339 -10.212  1300.33 0.067 2   8.12
 1821.5626 1454.2472 -11.249  3386.21 0.069 2   9.70
 2256.8850 1454.6851 -13.001 18291.77 0.057 2  17.50
 2646.1736 1458.6713 -10.413  1794.77 0.075 2   9.48
 1328.0975 1460.3322  -9.322   648.39 0.089 2   7.01
 2975.9170 1460.4998  -9.571   764.62 0.104 2   7.83
 1437.9720 1460.5684 -10.178  1340.81 0.066 2   7.93
 3755.4341 1461.3993 -12.184  7204.45 0.034 2  10.71
 3671.3489 1461.7397 -11.659  5143.48 0.097 2   9.94
  509.9885 1465.2406 -11.412  4736.55 0.043 2  11.35
 3797.3567 1466.1831 -11.404  4209.43 0.041 2   8.65
 2574.9692 1467.9647 -12.339 11204.58 0.065 2  10.24
 1293.7612 1469.5314  -9.518   703.42 0.073 2   6.49
 2230.5598 1470.0208 -10.846  2409.73 0.076 2  10.05
 2515.6267 1471.0503 -13.187 21456.45 0.066 2  18.78
 2791.8330 1472.1591 -10.237  1586.76 0.075 2   9.98
 2837.0225 1477.1372 -11.823  7124.46 0.055 2  11.01
 3061.7708 1476.9791 -10.175  1445.40 0.087 2   8.00
 3877.8940 1479.1631 -10.168  1556.19 0.057 2   6.57
 2669.1077 1481.4674  -9.794   900.59 0.086 2   7.86
  527.4373 1483.7102  -9.787   960.95 0.054 2   9.86
 2796.3994 1485.8607 -11.404  4122.12 0.070 2   9.62
 2268.8418 1486.5945 -12.030  6844.59 0.068 2  13.37
  566.2333 1489.3234 -12.402 11004.88 0.025 2  15.99
  588.1498 1488.5621 -12.030  7568.58 0.031 2  15.90
 1624.3558 1489.0905  -9.414   711.86 0.091 2  11.31
 2440.0574 1494.0299  -9.924  1174.58 0.094 2  12.72
 1570.8024 1496.0123 -10.792  2530.51 0.076 2   9.78
  631.2462 1497.0140  -9.593   939.57 0.064 2   9.63
  707.6760 1500.0807  -9.668   897.96 0.083 2   9.28
 1120.5040 1500.9059 -11.273  3548.25 0.053 2   9.88
 2869.7854 1500.8087  -9.234   665.66 0.089 2   9.00
  681.7996 1502.4707 -10.937  2681.32 0.034 2   9.30
 2438.8601 1502.5831 -10.978  2651.05 0.071 2  10.64
 1456.5378 1506.2483 -11.691  5135.58 0.057 2  10.79
 1046.8959 1509.8538 -12.042  8723.51 0.040 2  14.63
 2525.6311 1510.3521  -9.530   815.84 0.093 2  11.18
 1086.1913 1514.8385  -9.518   790.73 0.127 2   7.60
   91.2304 1515.5841 -10.813  2629.75 0.048 2  11.07
 2162.2085 1520.4749 -10.118  1146.98 0.079 2   7.03
 3285.5007 1520.7968 -11.551  4550.79 0.041 2  10.95
 1367.8164 1524.0132  -9.856  1112.60 0.080 2   9.15
  404.3113 1526.4436 -11.544  4316.30 0.036 2   9.19
 1069.9655 1528.0094 -10.860  2947.61 0.048 2   8.78
 3248.1382 1529.8865  -9.863  1181.81 0.083 2   9.18
 3929.3835 1531.8099  -9.598   842.55 0.088 2   7.22
 1331.7533 1536.9972 -11.142  3645.54 0.059 2   7.80
 3692.2241 1538.2769 -15.941 74528.12 0.000 2 116.65
   95.4884 1538.9296 -11.876  6567.75 0.026 2   9.36
  482.9965 1541.5959 -10.505  1944.85 0.033 2   6.83
 3152.3303 1542.1600 -11.930  7000.68 0.052 2   8.78
   67.7253 1543.1556  -9.671  1001.79 0.088 2   8.79
 1663.8429 1543.9254 -10.169  1505.22 0.054 2   7.48
  609.0327 1546.1648  -9.592   958.09 0.080 2   7.95
 1508.6270 1546.5883 -10.895  2242.48 0.058 2  12.57
 1858.6588 1547.2755 -12.201  8677.45 0.073 2  13.97
 3703.9487 1549.3123 -10.047  1212.82 0.115 2  44.13
 1700.1986 1551.6223 -11.525  4669.42 0.050 2   8.89
 1133.2769 1554.1287 -10.066  1260.37 0.067 2   8.62
 3035.5784 1553.8607 -10.485  1698.37 0.068 2   8.03
   71.7205 1557.4403 -10.555  1658.93 0.109 2  10.33
  790.3373 1556.8359 -12.879 17708.80 0.030 2  14.56
 3818.6367 1556.6942 -11.115  2967.43 0.050 2   8.96
 4057.9836 1559.3057 -11.108  3548.37 0.036 2   9.32
 1457.7129 1560.3306 -10.915  2675.46 0.055 2  13.34
 2298.7117 1560.6954 -10.957  2691.11 0.056 2  10.92
 1471.7363 1562.6017 -10.204  1297.49 0.052 2   9.42
 3604.6326 1563.4822 -11.057  2665.12 0.053 2  11.05
 3662.9019 1565.2405  -9.453   786.20 0.111 2  19.88
 1888.1401 1566.1871  -9.678   958.22 0.070 2  13.82
 2842.5984 1567.9862 -12.980 17478.48 0.058 2  15.14
 1531.0773 1568.8160  -9.481   756.82 0.104 2  12.39
 1817.8959 1568.7935 -12.026  7900.86 0.055 2  14.30
 1484.3292 1570.2130 -10.054  1205.53 0.073 2   9.56
 1170.5092 1572.2832 -11.622  5028.16 0.043 2   9.26
 2127.6755 1572.4065  -9.068   546.21 0.121 2   8.56
 1872.7965 1573.3618 -10.791  2297.98 0.079 2  10.47
  173.7859 1574.7703 -10.499  2004.67 0.037 2   9.80
 3109.7209 1575.4712 -11.421  3914.85 0.072 2   7.93
 1901.3403 1579.1105 -10.366  1640.09 0.065 2  13.00
 1808.0500 1587.8583 -11.840  6688.41 0.053 2  11.40
 1579.9402 1589.0033 -11.245  3961.51 0.077 2  12.70
 2408.7168 1590.6873 -10.660  1970.94 0.079 2   9.03
  626.1441 1593.5232  -9.608   794.24 0.082 2   9.73
  591.0588 1595.1945 -11.839  7331.79 0.034 2  10.76
 2864.3711 1595.1772 -11.399  4077.93 0.059 2  11.31
 3809.2388 1598.3396  -9.674   865.58 0.061 2   8.38
   44.3721 1600.1859  -9.118   557.42 0.104 2   9.47
 1522.8082 1599.7563 -13.512 29976.35 0.052 2  23.29
  299.3746 1601.5311 -10.473  1655.74 0.030 2   9.64
  574.6929 1603.6595 -10.764  2291.07 0.045 2   9.91
  272.3226 1609.0127 -10.570  2203.15 0.038 2  10.73
 2330.7734 1614.0033  -9.963  1243.12 0.076 2   6.70
 1155.8711 1614.9969  -9.828  1114.19 0.069 2   7.12
  284.7252 1616.2026 -10.794  2730.73 0.030 2  11.42
  199.2553 1618.6707  -9.131   531.18 0.121 2   7.69
  527.3871 1618.9094 -12.904 18090.87 0.022 2  16.95
 2347.3340 1619.4835  -9.546   682.39 0.114 2  10.30
  666.7985 1621.4310 -10.115  1238.60 0.070 2   7.43
  902.6069 1622.1653 -10.959  2996.01 0.032 2   8.58
 2542.5969 1622.9309 -11.757  5684.58 0.068 2  11.62
 3315.2153 1622.9121 -12.191  9793.66 0.043 2  13.08
 3147.1528 1626.9595 -10.651  2380.25 0.068 2   8.11
 3843.4868 1626.8667 -11.317  3720.67 0.048 2   7.47
   39.5633 1628.0197 -11.440  4606.66 0.030 2  11.51
 1140.0867 1629.1006  -9.561   949.03 0.079 2  12.00
  257.1917 1632.6619  -9.612   861.12 0.063 2   7.40
 3935.6675 1633.8539 -10.099  1294.17 0.074 2   8.20
 1176.2721 1636.0690  -9.205   659.61 0.083 2  10.07
  169.6750 1637.4541  -9.045   563.94 0.136 2   8.28
  766.8595 1639.8772 -10.091  1448.24 0.055 2   7.85
 3400.6575 1641.4552  -9.369   613.44 0.104 2   6.16
 1731.7676 1641.9945 -10.142  1364.14 0.082 2  14.04
  311.8109 1642.8391  -9.347   702.25 0.085 2   7.87
 1047.6201 1642.7943  -9.601   832.09 0.078 2   8.33
 2635.1216 1642.9840 -12.479 13103.12 0.055 2  10.38
 2673.5327 1644.3306 -12.193  7771.97 0.067 2  11.50
  652.9886 1644.9135  -9.516   892.90 0.109 2   7.88
 1495.3835 1644.9890  -9.993  1151.91 0.086 2  13.26
 1878.9093 1644.6895 -10.166  1371.22 0.072 2  14.21
 1417.8009 1646.9437 -10.322  1728.35 0.060 2   9.58
 1134.7596 1648.4398 -11.241  3625.89 0.042 2  12.05
 1721.8351 1647.8822 -13.044 20264.82 0.053 2  16.66
 3498.9001 1650.3671 -11.782  6193.79 0.048 2  10.33
  728.1038 1653.9043 -10.110  1544.11 0.043 2   9.67
 1163.5957 1658.0924  -9.732   956.40 0.065 2   8.96
 2692.7898 1659.3762  -9.937  1040.48 0.095 2  10.69
 3284.9248 1659.6135 -12.962 17494.28 0.052 2  15.48
 2209.1833 1662.8586  -9.809  1005.39 0.078 2   7.45
 2698.3044 1664.4803  -9.054   442.91 0.122 2   9.58
 2774.0820 1663.8707 -10.356  1770.00 0.076 2   7.25
  300.5301 1671.1757  -9.173   595.90 0.118 2   6.93
   47.6630 1672.7140 -10.367  1678.97 0.045 2   7.55
  573.4413 1673.5389  -9.490   673.60 0.070 2   8.69
 3121.9360 1675.1497 -12.770 16676.21 0.047 2  13.12
 2635.0835 1676.1215  -9.640   945.56 0.059 2   9.49
 1821.8850 1678.4739 -11.004  2745.30 0.054 2   9.54
 1355.6031 1678.7240  -9.302   580.18 0.132 2   9.82
  634.4377 1680.3251 -12.145  7580.20 0.031 2  14.07
 1130.1541 1684.8574 -10.000  1283.41 0.071 2   9.52
 1347.4752 1686.8280 -10.100  1232.39 0.068 2  12.62
   73.4034 1688.4531 -10.694  1893.23 0.034 2   8.58
 4033.8420 1688.7029 -11.184  3664.69 0.034 2   5.78
  927.5267 1690.6161  -9.655   764.92 0.097 2   6.93
 3617.4382 1693.8186  -9.408   689.33 0.096 2   9.20
 2222.5005 1694.8214 -11.043  2729.66 0.055 2   8.69
 3007.0171 1695.5149 -11.688  5180.63 0.055 2   9.69
  474.7803 1697.0476 -12.765 16793.74 0.030 2  14.77
 3230.5979 1699.3431 -11.071  2881.51 0.060 2   8.67
  786.3743 1699.5970 -11.534  4715.40 0.035 2   8.36
 3266.8167 1699.6736 -12.266  9159.70 0.057 2  14.37
 1494.8118 1704.7419 -11.597  5139.74 0.050 2  14.45
 2207.3635 1706.4863 -10.654  1771.94 0.079 2   8.43
  360.7513 1711.5265 -10.909  2524.38 0.033 2   9.83
 1757.9791 1711.0160 -11.167  3863.97 0.058 2   9.22
  343.0727 1711.5701 -11.789  6199.75 0.022 2  12.03
   39.0386 1713.4006  -9.414   784.93 0.087 2   7.93
  829.5968 1716.0763 -10.199  1511.02 0.055 2   9.80
 3912.9951 1717.5394  -9.968  1095.05 0.097 2   8.07
 1936.5630 1719.7670  -9.691   817.61 0.065 2  11.62
  856.9382 1720.6124 -11.256  3773.92 0.048 2   7.82
 1967.6565 1721.5570 -11.969  5975.10 0.066 2  10.87
   82.7041 1722.1731  -9.937  1289.82 0.089 2   9.11
  171.5702 1723.6335  -9.884   934.97 0.055 2   7.74
 3020.5403 1724.0920 -10.013  1125.84 0.074 2   8.39
 3225.1816 1725.0643 -10.002  1242.74 0.070 2  10.10
 3602.8176 1724.8721  -9.917  1192.30 0.066 2   7.41
 1463.2565 1725.9421 -11.705  5984.33 0.056 2  11.41
 3308.3679 1726.3408  -9.829   886.96 0.100 2   9.59
 3625.0369 1726.7267 -10.030  1327.82 0.073 2   7.43
 2583.4331 1730.8436 -11.332  3753.23 0.061 2  12.03
  277.7500 1733.5513 -10.201  1373.91 0.055 2   8.37
  100.8573 1733.8040  -9.259   685.72 0.103 2   6.23
  962.8494 1738.8265  -9.683  1053.37 0.056 2   7.81
 1231.5481 1739.0366  -9.304   638.98 0.075 2   9.01
  623.4268 1741.9808 -10.162  1441.96 0.060 2   6.73
  576.6312 1743.4581  -9.428   699.21 0.117 2   6.56
 3534.7944 1744.0745 -11.854  7123.33 0.049 2  11.72
  733.1218 1746.1047 -10.294  1711.48 0.064 2   5.10
 3898.8181 1746.0156 -10.826  2752.81 0.057 2   9.89
 3166.3215 1751.9729 -11.530  5000.68 0.057 2  12.14
  194.4756 1755.1552  -9.719   880.99 0.074 2   5.92
  812.0817 1757.4006  -9.686   966.91 0.080 2   6.91
 2866.1116 1756.6808 -12.045  7999.74 0.063 2   9.75
  242.5354 1758.7349 -10.515  1721.92 0.034 2   6.16
 2139.2446 1764.0184 -10.412  1796.74 0.066 2   8.30
 1954.9094 1767.8551  -9.633   928.12 0.079 2   8.98
 2417.7812 1768.8822  -9.286   657.44 0.119 2   6.08
 1028.2344 1769.8242 -12.287 10551.14 0.044 2  11.64
 3400.6128 1771.1221 -11.746  5825.48 0.050 2  11.84
 2965.0093 1772.5597 -11.929  6557.98 0.057 2   8.47
   45.4968 1773.8640 -10.567  1972.00 0.054 2   9.26
 3777.2930 1775.1160 -13.240 24784.03 0.034 2  15.83
 3355.8723 1776.7982  -9.393   728.10 0.105 2   5.65
 1601.7443 1784.3978 -10.320  1520.72 0.098 2   8.91
 1511.5977 1785.8447  -9.370   610.93 0.098 2   7.83
  337.4005 1787.0870 -11.318  4067.24 0.047 2  10.89
 3420.7173 1788.1266  -9.245   633.91 0.094 2   8.51
 2001.5123 1789.1064 -10.308  1408.38 0.086 2  10.22
  848.0536 1790.6150 -11.140  3567.97 0.028 2   9.72
  931.1895 1793.3347 -12.479 11992.43 0.028 2  15.93
 3971.6929 1792.6342 -11.760  5603.99 0.035 2  11.78
  764.8148 1794.0070 -10.121  1541.46 0.045 2   6.58
  517.7557 1800.7122  -9.927  1121.99 0.066 2   8.20
 3996.1404 1801.2493 -10.249  1607.68 0.050 2  12.49
  337.1685 1802.7025 -11.785  6687.54 0.030 2   9.93
  546.2220 1805.0034 -11.339  4436.33 0.040 2  10.09
 4084.4202 1805.2102 -12.397 10748.73 0.028 2  11.89
 3700.7095 1808.3806 -12.734 14205.69 0.035 2  16.91
 2455.7703 1809.3157 -10.528  1840.11 0.088 2   8.62
 2186.2822 1812.2865  -9.612   754.92 0.086 2   8.89
 3152.9414 1811.5928 -10.152  1305.17 0.073 2   8.08
 2042.9611 1814.0441 -12.970 20050.07 0.049 2  19.81
 2343.9065 1813.9022 -11.627  5699.65 0.066 2   9.29
 2645.8733 1815.6031 -11.730  5590.52 0.056 2  10.19
  663.6934 1817.2546 -10.872  2874.43 0.057 2   9.40
 2941.1943 1816.9230 -13.675 36880.02 0.059 2  17.41
 2607.2075 1821.4287 -11.174  3132.21 0.070 2   8.45
 4016.8630 1822.3660 -14.427 68203.44 0.000 2  37.85
  625.9747 1824.8185 -10.074  1396.26 0.065 2   8.38
 2567.7041 1825.5697 -10.385  1403.67 0.082 2   8.41
  263.6000 1826.6062  -9.883   953.29 0.079 2   8.83
 2537.5845 1827.5327 -12.609 10672.26 0.065 2  12.09
 2795.6580 1827.4061 -14.443 65397.99 0.000 2  37.64
 3293.9707 1828.0299 -10.709  2534.58 0.054 2   8.02
 3874.5688 1829.5133 -14.359 52689.52 0.031 2  28.12
  426.6683 1834.1332  -9.486   792.65 0.070 2   8.24
 2842.6289 1834.3402  -9.814   941.52 0.091 2   8.65
  290.0071 1835.3431 -10.205  1512.26 0.050 2   7.03
  891.4886 1834.9408 -10.521  1942.39 0.033 2   9.20
  237.5013 1836.0050 -11.801  6117.39 0.024 2   9.60
  958.9115 1837.1907 -13.257 26489.80 0.034 2  16.60
 1155.3640 1837.2059 -11.074  3131.87 0.049 2   7.59
  744.5050 1837.5547 -10.535  1746.35 0.042 2   9.98
   75.9939 1839.2755  -9.457   854.17 0.083 2   9.27
 3573.7493 1839.7939 -10.512  1904.33 0.060 2   5.82
 2029.3914 1841.7377 -10.152  1307.86 0.080 2  12.62
  435.5714 1845.3970 -11.068  2918.54 0.042 2  11.76
 1717.8534 1844.7350  -9.771   987.14 0.084 2   7.70
 1913.7197 1846.0758 -12.736 15353.10 0.055 2  14.61
 2054.8438 1846.1548 -12.743 15797.46 0.056 2  17.25
 2322.1582 1847.2966  -9.415   736.81 0.098 2   7.97
 3284.6409 1851.7339  -9.618   811.57 0.074 2   7.49
 4013.0139 1851.9393  -9.405   800.80 0.088 2  12.06
 1169.2756 1855.1223  -9.435   775.78 0.075 2  10.23
 2019.7400 1856.1135  -9.486   798.11 0.083 2  11.91
 3589.3674 1856.8284 -10.149  1416.49 0.068 2   9.08
 1210.0381 1857.8743 -12.383 12469.67 0.030 2  15.13
 2684.3782 1860.3602  -9.806   910.35 0.083 2   7.78
  120.4072 1862.0934  -9.673   947.62 0.059 2   8.28
 3895.6689 1863.3947 -10.661  2039.74 0.061 2  13.53
 2046.8555 1863.9359 -11.600  5570.90 0.056 2  14.35
 3672.8735 1864.1042 -11.133  3616.58 0.060 2  10.33
 2890.0217 1869.1023 -11.174  3861.54 0.065 2  11.33
  566.9843 1870.8601 -11.659  6376.24 0.038 2  13.47
 1133.6165 1871.1769 -10.719  2440.58 0.057 2   9.01
 3905.0337 1871.5311 -11.552  4697.48 0.031 2  12.28
 1426.4189 1873.0513 -10.790  2426.73 0.047 2   9.30
 1983.2963 1877.1121 -10.895  2639.80 0.066 2   9.99
 1085.2905 1877.8390 -10.497  2029.92 0.050 2   7.58
 2254.2136 1877.9581 -11.450  4793.66 0.059 2   8.08
  660.1747 1879.8516 -12.358 11823.76 0.032 2  10.48
 2487.7273 1880.5104 -12.422  9529.78 0.063 2  12.74
  577.5182 1880.6733 -11.421  4019.26 0.037 2  12.55
 3575.5664 1881.9104 -10.371  1611.96 0.047 2  10.47
 3487.4329 1883.9752 -10.817  2437.12 0.051 2   8.73
   46.8627 1886.3141  -9.370   700.99 0.085 2   8.42
   23.1512 1888.3358  -9.477   816.48 0.078 2   6.99
 1005.7955 1891.3763  -9.315   710.09 0.058 2   9.04
  404.1568 1892.1577 -10.017  1432.00 0.054 2   7.65
 1590.6722 1892.6337 -10.664  1966.53 0.071 2   9.30
 1414.7765 1894.0675 -10.060  1442.35 0.094 2  10.12
 2868.4280 1894.4299 -11.641  4285.70 0.062 2   9.50
  257.0999 1898.4681 -10.323  1477.23 0.062 2   5.84
 3961.7383 1899.4175 -10.548  1891.63 0.039 2   9.08
  728.1805 1901.4167 -11.592  5003.54 0.045 2   9.27
 2908.4343 1901.4700 -10.373  1357.06 0.067 2   7.94
 2719.0537 1906.8116 -10.974  3044.98 0.079 2   7.72
 1155.5880 1911.6158  -8.942   431.45 0.120 2   6.66
  545.6933 1912.2230 -10.921  2924.58 0.046 2   7.23
  440.6057 1912.5956 -11.971  6163.10 0.032 2  15.38
   56.9673 1915.4058 -11.244  3388.55 0.164 2   9.20
 1893.2384 1914.7401 -11.638  5456.84 0.050 2   8.09
 3804.1150 1918.0857 -14.450 68214.69 0.000 2  35.96
  501.8468 1922.1558  -9.370   734.75 0.077 2   6.11
  978.4297 1922.1084 -10.635  2003.90 0.080 2  19.36
 2187.9790 1922.3824 -10.342  1543.23 0.085 2   6.97
 1270.4791 1923.7520  -9.492   678.34 0.109 2   9.20
  621.5150 1924.9198  -9.585   833.40 0.106 2   9.59
 1100.2728 1924.5449 -10.929  2735.89 0.044 2   9.39
 3977.9949 1925.1824 -11.828  7469.17 0.031 2  12.88
 3999.8928 1924.6340 -11.089  3319.59 0.037 2  12.10
 3595.9871 1928.8571 -14.433 68065.38 0.000 2  38.31
  976.6862 1930.8601 -13.243 24624.58 0.032 2  19.30
  634.8705 1933.1210 -11.718  6492.15 0.046 2  13.84
 2958.5798 1932.7098 -12.795 13274.04 0.052 2  14.82
  456.1169 1935.8268  -9.275   719.75 0.107 2   9.25
  802.2692 1938.0214  -9.351   745.05 0.119 2   6.07
  910.3196 1938.2634  -9.824  1115.06 0.071 2   7.37
 1018.4431 1941.6470 -12.214  8751.22 0.028 2  10.32
 3543.2927 1944.3492  -9.081   507.25 0.093 2   8.26
 1781.6791 1945.2380 -11.915  7091.35 0.052 2  33.75
 3508.4429 1947.0347  -9.482   750.72 0.087 2   9.29
 1749.0930 1950.4916 -16.576 77821.61 0.000 2 191.26
 2514.2463 1951.8066 -10.323  1673.98 0.048 2   7.74
 2306.9575 1954.4591 -11.089  3002.89 0.071 2   8.27
  156.9708 1955.0322  -9.346   871.51 0.122 2   9.39
 1821.9354 1955.5927  -9.527   736.89 0.079 2  13.89
 3595.7527 1957.6707 -11.105  3166.54 0.051 2  12.01
 3786.4417 1962.7881  -9.815   972.58 0.054 2   7.64
 1018.6677 1965.2629  -9.788  1094.70 0.064 2  10.24
  494.1841 1966.4305 -11.808  5922.22 0.036 2  11.98
 3174.7139 1965.8635 -12.045  8167.53 0.037 2  13.18
 3048.5269 1966.6681 -11.914  5817.57 0.052 2   9.07
 3985.8647 1973.2090 -11.851  7473.48 0.027 2  10.48
 1430.9381 1979.2124 -11.825  7324.21 0.052 2   9.72
 1243.3790 1979.9230 -11.089  3308.65 0.055 2   9.33
 3134.2146 1987.9540 -10.524  2077.49 0.066 2   8.97
 2190.8669 1989.9327 -11.243  3990.65 0.067 2   9.11
  870.6381 1992.2288  -9.278   674.60 0.085 2   8.94
 2770.0232 1995.5828 -10.050  1186.33 0.094 2   9.26
  236.0645 1999.9886  -9.625  1023.91 0.057 2  10.26
 2391.4829 1999.8014 -10.113  1174.74 0.066 2   7.31
  279.2099 2002.7616 -14.289 66183.94 0.030 2  28.22
  315.5187 2009.2578 -12.378 10412.01 0.017 2  16.62
 2850.3940 2009.7017 -10.201  1369.07 0.072 2   5.71
  532.4712 2014.2262  -9.188   584.80 0.098 2   7.96
 1206.7144 2013.9735 -12.821 17920.06 0.032 2  16.08
 3592.6287 2015.3605 -10.348  1492.52 0.079 2   8.65
 1460.9939 2015.8066 -11.060  3510.92 0.059 2   8.29
 3373.5657 2015.9321 -12.154  8315.04 0.035 2  11.98
 3827.7651 2016.6450  -9.117   527.57 0.118 2   3.82
  419.9418 2021.7782 -11.717  6470.96 0.036 2  10.47
 1158.1272 2021.6000  -9.541   818.33 0.086 2   6.89
 2370.1992 2028.7018 -10.199  1409.81 0.080 2   9.61
  564.6177 2029.7174 -10.391  1450.37 0.083 2   7.43
  489.5030 2033.5889  -9.880   972.97 0.061 2   8.94
 4043.3638 2034.6787 -11.183  3692.39 0.037 2   6.78
 1699.7229 2035.8740 -11.671  5702.32 0.056 2   9.03
 2773.8625 2035.7784 -10.171  1440.65 0.073 2   7.96
 1472.6464 2038.0765  -9.266   675.53 0.074 2   9.23
 2755.0095 2037.5703 -11.304  3701.25 0.057 2   6.73
  690.3246 2041.9790 -10.029  1285.48 0.081 2   8.10
  824.3190 2056.5122  -9.405   644.08 0.093 1  11.15
 3253.0500 2057.4753 -17.428 72585.47 0.000 1 388.16
  645.0811 2057.6694 -12.249 10283.41 0.028 1   8.49
 1953.9579 2062.0112 -12.719 16424.23 0.036 1   8.55
  728.2450 2062.8889 -11.300  4407.84 0.040 1   6.86
  863.2921 2062.7854 -12.420 11866.10 0.026 1  10.52
 1904.3195 2063.8828 -10.083  1286.34 0.077 1   8.00
 3325.2761 2065.2783 -11.597  5167.61 0.030 1  18.35
 2567.8254 2068.7546 -10.481  1882.39 0.064 1   9.53
  439.9021 2070.6707 -12.423 11947.09 0.027 1  13.73
 3776.1367 2074.4714 -13.778 35935.07 0.029 1  18.22
 1842.3596 2074.4585  -9.493   656.98 0.056 1   9.01
  811.4586 2076.1218 -10.962  2898.23 0.043 1   9.03
 2193.7354 2076.5398 -10.875  2323.82 0.055 1   9.44
 2997.2373 2081.7358 -11.687  5841.92 0.045 1  13.22
  557.6332 2083.1868  -9.592   865.24 0.069 1   9.00
 2125.4250 2082.9763 -11.095  2986.80 0.062 1  10.46
  597.3552 2085.4919  -9.229   567.78 0.093 1   8.04
 4056.4109 2086.1636  -9.965  1162.88 0.064 1   7.18
  307.0475 2087.4597 -12.417 10969.99 0.031 1  19.89
 2536.3003 2088.8882 -10.337  1715.61 0.060 1   7.83
  318.1196 2095.7334 -13.065 22363.65 0.024 1  17.32
  640.9980 2095.5127 -11.179  3324.75 0.046 1   8.37
 1006.0340 2095.5930  -9.411   782.36 0.094 1   9.79
 1307.0886 2096.0125  -9.757  1137.73 0.065 1   6.34
  906.8412 2100.2534 -10.408  1881.85 0.043 1   8.65
 1407.8400 2106.7944 -13.648 34823.76 0.045 1  22.95
 1190.5822 2108.1973  -9.899  1029.98 0.073 1   6.60
 1355.2202 2108.1021 -12.063  8677.70 0.041 1  12.01
  681.4863 2111.8020 -10.328  1609.08 0.054 1   9.00
  247.2015 2113.2673 -10.854  2754.11 0.038 1  10.53
 1262.3259 2114.3057 -10.451  1727.90 0.040 1   7.47
 4088.4395 2115.7485  -9.674   843.94 0.078 1   6.10
 1695.8000 2116.8406  -9.698   989.04 0.079 1   6.45
  339.0038 2119.8599 -10.428  2057.60 0.042 1  11.75
 3725.2344 2120.2100  -9.352   727.73 0.093 1   6.74
 1655.4619 2121.5137 -10.656  1771.57 0.053 1   8.89
 2403.0259 2122.9731  -9.772  1125.98 0.061 1   7.40
 2284.9136 2124.1006 -10.512  2142.28 0.052 1   9.14
   17.8190 2125.7661 -16.203 74133.12 0.000 1 145.49
 2629.9197 2124.9714 -12.941 19745.71 0.042 1  17.33
 2727.8867 2125.4453  -9.159   528.23 0.090 1   7.04
  310.6536 2129.0708 -11.115  3567.83 0.036 1  13.90
 1520.6459 2131.1265 -10.713  2326.93 0.060 1   7.00
 1811.2079 2132.4866 -10.547  1704.37 0.066 1  11.35
 2980.1562 2133.1157 -11.070  3493.53 0.044 1  10.59
  644.4643 2133.8621 -11.184  3470.91 0.038 1   9.22
 1166.8295 2133.6355  -9.917  1058.38 0.082 1   9.12
 2564.7507 2135.2693 -12.922 17829.21 0.050 1  19.61
  767.6684 2137.6423 -10.340  1538.44 0.059 1   9.27
 2996.7505 2137.7056 -12.765 14656.79 0.034 1  16.75
 1906.1208 2139.5330 -12.201  8202.29 0.047 1  15.12
 2357.4807 2140.7625 -12.081  7306.29 0.047 1   9.63
 3154.5288 2141.2744 -10.944  2607.79 0.038 1  12.10
 2581.0020 2141.7546 -10.448  1919.13 0.051 1  12.47
 1416.1066 2143.4502  -9.986  1139.58 0.055 1  10.23
 1899.2072 2143.0776 -11.114  3438.72 0.069 1  15.48
 1147.2000 2143.9009  -9.777  1126.57 0.056 1   6.84
 1213.0231 2143.9832  -9.950  1278.56 0.057 1   7.25
 3050.2322 2147.4692  -9.597   726.73 0.075 1   8.73
 1276.8746 2147.8228 -11.148  3547.94 0.069 1  10.08
 2508.8232 2149.7607 -12.224  9435.62 0.040 1  11.39
 2156.7932 2154.4175 -13.015 18132.72 0.048 1  15.60
  243.4975 2155.8093 -10.049  1297.57 0.058 1   8.98
 1670.0586 2155.9104 -10.738  2562.61 0.050 1   8.21
 2684.5564 2159.1887 -10.702  2091.98 0.063 1  11.17
  520.6316 2159.7791 -12.967 18191.34 0.025 1  17.58
 1069.9622 2162.2700  -9.423   823.71 0.099 1   9.07
 2073.3335 2166.9890 -12.624 13390.33 0.039 1  15.60
  773.7042 2167.6072  -9.545   753.71 0.064 1   8.13
   79.2309 2170.1938 -10.104  1432.96 0.083 1  12.17
 1621.4703 2170.1121 -10.557  1832.24 0.054 1   8.07
 3455.8958 2169.6069 -13.414 26826.54 0.031 1  18.59
  810.5348 2171.8281 -10.795  2439.01 0.034 1   9.54
 3272.1887 2172.7761  -9.761  1045.75 0.054 1   9.37
 2292.5029 2174.0166 -11.469  4103.12 0.061 1   8.23
  705.3854 2174.9543 -10.889  2883.05 0.043 1   8.88
 3347.8755 2177.4858 -11.310  3749.60 0.046 1  11.37
  737.1390 2178.2227  -9.778  1083.31 0.080 1   7.85
 1435.4044 2179.5676 -10.013  1124.22 0.055 1   8.34
 3770.5872 2180.8418 -11.986  7083.88 0.023 1  10.80
  248.3764 2181.9714  -9.277   693.29 0.099 1   7.46
   71.0323 2182.6426 -11.600  5711.25 0.033 1  12.79
 1106.7675 2183.1570  -9.292   696.95 0.112 1   8.05
 1581.5177 2183.8506  -9.598   781.28 0.076 1   8.06
  356.1102 2186.4673  -9.016   522.34 0.114 1   8.59
  489.3242 2187.6975 -10.230  1532.23 0.051 1   8.57
 1303.4213 2188.4060  -9.058   455.74 0.085 1   4.82
 1541.4939 2188.1782  -9.632   783.18 0.065 1   8.75
 4045.4941 2188.4658  -9.723   807.41 0.058 1   5.58
 1805.6761 2188.7253 -10.118  1188.75 0.060 1   7.10
  967.3876 2194.8513 -10.867  2677.15 0.078 1   8.87
 1188.8992 2195.1992 -10.134  1470.89 0.063 1   9.80
  585.4844 2196.3188 -10.191  1290.85 0.051 1   9.86
 1042.9434 2195.5024  -9.179   579.95 0.080 1  10.66
 2665.5249 2198.8196  -9.547   735.89 0.069 1   8.56
 3800.4639 2199.1086  -9.711   891.35 0.085 1   8.67
 2248.3123 2202.2451 -10.785  2386.64 0.061 1  10.78
 1456.0171 2205.5217  -9.822   971.63 0.070 1  13.59
 2570.1853 2207.8120  -9.303   761.23 0.083 1   9.87
 3609.9780 2207.7351 -10.960  3104.74 0.038 1   8.48
 1216.0178 2208.7151 -11.965  7936.09 0.028 1   9.24
 2793.1401 2208.5317 -12.327  9438.53 0.044 1  12.55
 2856.1436 2210.1501  -9.514   815.11 0.084 1  11.44
 1323.7585 2214.7793 -10.466  1820.41 0.063 1  11.98
 1411.6523 2214.6833  -9.437   705.99 0.093 1   6.56
  263.1953 2216.3125  -9.759  1023.90 0.076 1  10.76
 1900.5746 2218.4346  -8.961   414.11 0.107 1  10.31
  811.7365 2219.5234 -11.188  3161.03 0.046 1  10.29
 2256.5493 2218.8298 -12.655 11361.13 0.084 1  13.29
  151.5459 2221.2390  -9.947  1517.81 0.358 1  10.48
 3102.2407 2220.9878 -10.816  2779.26 0.042 1   7.01
 1439.4297 2221.8005 -12.028  7596.77 0.037 1   9.74
 3862.4756 2224.0422  -9.866  1065.26 0.073 1   7.14
  115.0152 2225.4265 -12.709 14906.64 0.033 1  14.99
 1594.8755 2229.3425 -11.078  3358.14 0.042 1  11.15
 1637.0311 2228.8796 -11.568  5525.95 0.063 1   9.44
 1775.0817 2228.6431 -10.660  2222.32 0.044 1  10.81
 3910.0969 2229.0471  -9.647   949.93 0.087 1   7.34
  363.8109 2231.0425  -9.656  1015.11 0.061 1  11.06
 1126.0739 2233.6204 -10.858  2608.34 0.042 1   8.13
 2049.1741 2233.9207 -11.186  3750.13 0.062 1   9.13
 4020.6033 2234.1084 -10.944  2757.04 0.032 1   6.81
 1080.9973 2239.8301 -11.188  3880.20 0.047 1  10.11
 1289.9280 2239.9011 -11.179  3880.58 0.070 1  14.64
 2288.5095 2240.0974 -10.844  2389.89 0.055 1   7.31
 3199.1875 2241.7224  -9.317   708.88 0.108 1   8.83
  766.4579 2242.7837  -9.896  1106.70 0.068 1   8.67
 2684.6401 2243.2212 -12.002  7577.69 0.047 1  11.37
 1294.1742 2244.1409 -11.380  4668.01 0.061 1  14.46
 1544.6959 2244.5818 -11.662  4787.79 0.043 1   9.95
 1719.9022 2245.4802  -9.504   703.42 0.081 1   7.68
  912.7391 2249.9148 -12.266 10511.34 0.023 1  12.21
 2343.8547 2250.8843 -11.333  4298.74 0.064 1  10.25
  701.0149 2252.3591 -12.706 14884.85 0.028 1  13.25
  347.6153 2253.4280 -10.681  2080.08 0.041 1  10.12
 1312.5280 2253.3892  -9.242   595.49 0.094 1   9.06
 1769.9889 2253.0708 -10.274  1687.50 0.059 1   9.31
 3602.3301 2252.6926 -11.858  6646.92 0.027 1  10.26
 2921.0852 2260.6238 -10.497  1863.43 0.055 1   8.08
 3787.2542 2260.5742 -11.319  3820.65 0.033 1  11.21
  425.1891 2263.3694 -10.247  1454.30 0.058 1  13.00
 1233.0956 2263.1533 -10.089  1491.45 0.047 1   9.21
 3500.9065 2266.3662 -10.996  3025.43 0.042 1   8.08
  949.8094 2270.7932 -12.984 19918.64 0.031 1  16.53
  801.4186 2273.0845  -9.468   758.83 0.076 1   9.72
 3791.4685 2275.3303 -12.979 16106.20 0.017 1  17.61
 2140.5042 2280.4888 -10.565  1594.51 0.069 1  10.70
 4055.8064 2279.8010 -11.253  4008.55 0.040 1   9.52
 1771.5726 2281.4746  -9.258   512.25 0.099 1   7.39
 3057.7021 2282.5273 -10.377  1506.62 0.053 1   7.03
  239.1106 2283.1599 -10.705  2743.03 0.038 1   7.82
  785.0757 2284.0806 -11.157  4098.71 0.031 1  10.72
 2765.2896 2285.5479 -12.228  8543.98 0.044 1  12.70
 2566.1128 2290.4358 -10.455  1720.40 0.061 1   6.09
 1679.9214 2292.4521 -11.020  2981.16 0.057 1   7.72
  285.8815 2293.8022  -9.466   874.74 0.096 1   9.90
  491.1776 2295.7554  -8.725   623.31 0.479 1  88.93
 3131.0056 2295.7715  -9.270   721.32 0.100 1   7.48
 2981.8604 2303.0884 -10.767  2635.45 0.062 1   8.06
 2471.6438 2307.6560 -10.987  2575.32 0.053 1  10.37
  990.0023 2309.2915 -13.651 36629.16 0.034 1  22.32
 2111.3242 2309.4233 -11.374  3528.54 0.062 1  10.52
 2810.6750 2312.2754 -11.677  5586.21 0.044 1  10.74
 2823.7307 2314.3979  -9.816   975.27 0.070 1   9.83
  154.0916 2317.5005  -9.483   775.54 0.068 1  19.91
 2488.2551 2320.1055 -10.039  1310.21 0.050 1   9.50
 3371.1650 2321.1636 -11.593  5621.84 0.034 1   9.48
  487.8790 2323.2273 -17.513 69693.38 0.000 1 492.18
 3901.8640 2324.4885 -10.652  2120.10 0.046 1   7.84
 2275.1350 2325.5168 -11.533  4297.44 0.061 1   8.46
 3726.3647 2328.0398 -12.110  8636.29 0.024 1  11.90
  750.0466 2328.7002 -10.221  1598.98 0.055 1  12.22
   97.0983 2330.4453 -10.260  1550.87 0.043 1  13.97
  322.5977 2330.4080 -13.206 22097.51 0.018 1  17.03
  619.5345 2330.0330  -8.976   530.25 0.115 1  10.12
  754.6854 2334.1511 -10.479  1920.51 0.067 1  12.34
 2734.6328 2334.4871 -12.589 11227.50 0.035 1  12.14
 2915.5708 2334.7056 -10.439  1519.00 0.064 1   7.11
 1918.5958 2338.0630 -12.427 10967.32 0.046 1  10.43
 2099.6685 2337.9890  -9.351   717.48 0.079 1   8.13
  929.4219 2338.8252  -9.914   756.39 0.283 1   9.97
 2147.8926 2339.8735 -10.976  3107.72 0.057 1  10.77
 2949.2754 2341.0522 -10.837  2772.53 0.049 1   7.87
 3032.3413 2343.9785 -11.746  6408.76 0.034 1   8.54
  998.8522 2345.7764  -9.853  1151.87 0.082 1  11.12
 3136.8459 2346.5588 -11.648  4970.86 0.045 1  11.43
 1831.9218 2348.8306 -12.172  9404.46 0.049 1  11.97
  203.6670 2350.8604 -11.628  5579.85 0.033 1  13.29
  682.4553 2351.6816  -9.638   876.09 0.059 1  10.97
 1174.0610 2352.7952 -10.734  2684.17 0.058 1   7.84
 3696.5637 2354.1506 -11.666  5166.12 0.036 1   9.84
 2280.0605 2357.2546 -10.078  1346.92 0.071 1  10.35
 3464.8340 2359.4888 -11.026  2744.56 0.060 1   9.39
 2421.8291 2359.5823 -10.066  1170.84 0.066 1  10.92
 1357.4358 2360.6604 -10.250  1419.24 0.047 1   7.68
 2802.8145 2362.4478  -9.424   729.79 0.079 1   8.83
  142.7740 2363.9299 -16.046 74078.19 0.000 1 127.07
  312.2845 2363.5654  -9.228   670.87 0.112 1   9.94
 2728.7942 2363.8491 -12.384 11382.19 0.036 1  15.35
 2983.0830 2365.5400 -11.351  3810.06 0.040 1   9.68
  457.1964 2369.9163 -10.535  2184.54 0.053 1  31.96
  281.6182 2373.7480 -12.183  8499.12 0.080 1  12.74
 1947.7543 2374.0864 -11.591  5366.94 0.050 1  11.97
 1537.1967 2374.9873 -12.070  8807.92 0.045 1  11.02
  771.4348 2376.4607 -12.818 13921.51 0.019 1  20.12
  104.8868 2378.7908 -11.066  3569.50 0.030 1  17.36
  709.7102 2379.4087 -11.900  6942.17 0.028 1  11.09
 1200.2133 2380.4685 -10.800  2299.10 0.056 1   9.15
  652.8467 2385.4858  -9.171   530.56 0.096 1   8.08
  761.9425 2390.4182  -9.101   563.48 0.104 1  20.68
 2467.3623 2395.5652 -10.914  2449.82 0.060 1  10.10
 2602.8389 2397.0974 -10.426  1935.10 0.053 1   6.96
  382.1054 2398.1082  -9.412   829.27 0.070 1  15.21
  731.7072 2398.4163 -10.458  1858.69 0.055 1  11.15
  624.4215 2402.1667 -10.949  2860.56 0.039 1  10.01
 3949.3867 2402.1516 -11.961  7227.12 0.027 1  11.86
 1620.6017 2403.6919 -10.080  1133.40 0.070 1  10.24
 1392.0691 2405.7007  -9.228   606.41 0.078 1   5.09
 1019.5085 2406.4844 -10.027  1054.79 0.053 1   7.55
  322.2128 2407.7239 -13.903 46571.48 0.022 1  21.82
  760.2972 2407.7156 -12.232 10002.70 0.022 1  18.26
  770.0220 2409.0767 -11.112  3972.11 0.028 1  17.43
 1662.7023 2412.3010  -9.814  1005.52 0.066 1  10.18
 1962.8564 2416.4070 -10.416  1707.36 0.060 1   7.38
 1636.5392 2416.9058  -9.277   605.79 0.078 1   8.05
 3515.9944 2418.1340  -9.639   948.83 0.075 1   7.20
 2517.3486 2419.7188 -11.202  3395.07 0.080 1  18.45
 1546.4310 2420.4578 -10.665  1839.85 0.054 1   8.68
  846.4909 2422.4595 -10.807  2236.69 0.036 1   9.62
 2162.3569 2423.0193 -12.019  7917.39 0.032 1  10.07
 2999.5103 2423.2959  -9.677   839.80 0.093 1   7.19
 2523.9695 2424.9080 -13.028 21596.10 0.037 1  16.60
 1684.3450 2429.1018 -11.150  3386.51 0.065 1   7.53
  103.8254 2430.0444 -11.155  4055.92 0.038 1  10.86
  590.2341 2429.8184  -9.374   783.93 0.074 1   9.37
  872.7210 2433.4844  -9.044   509.54 0.124 1   9.85
 2320.2791 2434.3171 -10.066  1250.26 0.068 1   8.69
 3902.4663 2433.6765 -11.454  4130.64 0.030 1   7.19
 1820.1091 2438.9856 -11.455  4930.50 0.058 1  11.38
 2344.9468 2440.9019 -10.064  1380.25 0.069 1  10.53
 1719.1359 2442.4331 -10.447  1670.53 0.064 1   9.18
  606.7547 2443.0994 -10.314  1840.31 0.040 1  12.18
  140.2227 2447.3672 -10.853  2591.32 0.038 1  10.75
 2887.9939 2450.8669 -11.742  6811.26 0.029 1  11.75
 2357.0828 2453.8367 -13.120 22481.59 0.042 1  16.82
 2675.2639 2456.6169 -11.688  5467.86 0.043 1   8.42
  871.2736 2457.6006 -10.497  1888.05 0.061 1  10.82
  422.6424 2459.1880  -9.484   770.83 0.101 1  29.56
  608.8735 2458.8018 -10.226  1695.20 0.049 1  11.64
 2907.7334 2458.6807 -10.311  1541.28 0.048 1   8.80
  233.0031 2461.7749 -12.399 12780.19 0.027 1  15.43
  904.7263 2463.8813 -10.913  2961.74 0.036 1   9.19
 1786.5277 2463.5400  -9.554   708.34 0.079 1   9.69
 2781.0964 2464.9329 -11.587  5791.36 0.037 1  11.85
 1640.5802 2467.2102 -12.078  7990.01 0.047 1  11.87
 2799.8772 2467.2964 -10.975  3064.83 0.056 1  11.97
  654.2797 2467.7217  -9.570   884.48 0.073 1  12.74
 1098.1058 2467.6111 -10.523  1623.81 0.254 1   8.64
  739.1826 2470.1545  -9.377   766.61 0.081 1   8.20
 1385.2533 2470.1245  -9.787  1037.84 0.057 1   7.95
  261.1275 2475.2104 -10.337  1766.89 0.041 1  16.19
  444.2250 2474.5305 -16.082 69609.21 0.000 1 134.38
 3813.5183 2474.6487 -10.760  2023.43 0.034 1   6.60
 1059.0663 2475.8760 -12.195 10499.41 0.028 1  13.01
  975.5178 2477.5671 -11.238  3195.92 0.034 1  10.77
 3247.7178 2480.7854  -9.359   734.01 0.079 1   7.20
  489.9517 2483.7354 -11.073  3432.43 0.039 1  21.96
 3322.5110 2484.3811 -10.265  1287.26 0.050 1   7.92
 1552.9141 2486.0994 -12.688 15701.67 0.044 1  13.68
 3620.5891 2487.8342 -11.815  6099.18 0.027 1  10.68
 1031.2065 2489.0510  -9.349   781.30 0.079 1  12.25
 1050.8754 2488.8860 -12.079  9261.35 0.032 1  13.06
 1459.7716 2494.3108 -10.940  2937.97 0.047 1  10.08
 2556.2446 2494.2930 -11.643  5383.98 0.046 1   8.36
  640.0114 2497.3911 -11.891  7216.35 0.023 1  10.66
 1465.1541 2498.6587  -9.466   732.22 0.102 1  16.20
  210.4525 2502.8479 -11.928  7239.35 0.028 1  11.46
  486.6088 2503.0278 -11.526  5157.74 0.023 1  26.85
  513.3353 2503.0369 -10.557  2212.99 0.038 1  13.47
 3748.0750 2502.7578  -9.784  1058.42 0.055 1   8.48
  299.6490 2505.0471 -15.400 70743.42 0.000 1  73.83
 1298.3262 2504.5928  -9.260   607.06 0.086 1   8.36
 2436.1458 2507.9731  -9.646   921.18 0.074 1   7.14
 2108.4004 2508.4182  -9.185   504.75 0.088 1   8.20
 2804.5381 2509.7578 -10.317  1390.59 0.127 1   7.53
 1901.9574 2510.6621 -12.667 14004.17 0.040 1  11.82
 2473.0837 2510.8994 -11.331  4579.65 0.047 1   9.47
 3410.3018 2513.1289  -9.108   566.01 0.075 1   6.34
 3485.2617 2513.1895 -11.432  4791.78 0.028 1  10.88
 3101.7510 2515.2456 -13.096 21370.02 0.025 1  16.80
  711.7663 2515.8318 -11.858  7266.94 0.028 1  10.60
 1044.5791 2515.6748  -9.935  1037.03 0.063 1  10.44
 3445.0132 2515.6675 -10.946  2914.91 0.041 1  11.27
 1826.5883 2518.0864 -11.971  7375.76 0.046 1  10.41
 3300.0203 2518.9045 -11.676  6453.43 0.030 1   9.23
   19.6997 2522.2085 -11.570  5736.31 0.035 1   9.42
 2024.7454 2526.4812 -10.527  1810.78 0.040 1   9.02
 1547.5540 2526.8850 -12.139  7937.15 0.043 1  12.11
  756.1890 2528.0347 -10.823  2947.89 0.040 1   9.85
 2780.0759 2529.3450 -10.470  1932.64 0.052 1   8.67
 2159.1663 2529.7537 -13.451 28860.26 0.047 1  18.44
  338.3430 2531.0403 -12.407 11834.81 0.021 1  21.12
 3712.3638 2530.7129 -13.111 20482.48 0.023 1  15.67
 3094.5532 2532.9324  -9.993  1156.55 0.048 1  11.77
  214.8431 2536.1008  -9.419   932.76 0.110 1   8.81
 2699.5608 2536.1606 -10.113  1326.78 0.040 1  10.80
  425.1141 2538.6489 -12.141  9294.62 0.022 1  17.01
 3069.9053 2539.5100  -9.197   560.71 0.082 1   6.86
  559.3199 2540.6685 -12.091  8547.92 0.022 1  12.41
 1656.2366 2546.1506  -9.911  1177.92 0.067 1   6.43
   48.1666 2547.0752  -9.172   642.56 0.114 1   9.60
 3444.8745 2547.1831 -12.533 13544.20 0.029 1  13.08
  576.6909 2547.7583  -9.384   713.92 0.087 1  13.00
 1109.7358 2550.0771  -9.086   636.05 0.106 1  10.23
 4033.0400 2551.1128  -9.676  1009.53 0.050 1   6.48
   97.3694 2553.3921 -11.475  4228.67 0.031 1  11.08
 1903.8275 2553.2065 -11.500  5100.45 0.054 1  12.70
 3006.9229 2553.4878 -10.522  1785.21 0.042 1   8.79
 3723.9224 2565.1653 -11.001  3338.94 0.045 1   9.77
 2452.5615 2567.5439 -10.141  1139.08 0.041 1   9.78
 1142.6541 2571.4041 -13.837 38627.09 0.032 1  23.23
 1322.3800 2570.5952 -10.425  1624.72 0.042 1  10.61
  956.9062 2574.3447 -10.075  1346.43 0.078 1  10.25
  492.4925 2574.6145 -10.640  1960.92 0.038 1   9.69
 1827.3489 2574.5681 -12.353  9576.79 0.038 1  15.61
  377.7307 2578.3479 -11.193  3788.57 0.032 1  11.62
 1114.9092 2577.5256  -9.143   569.89 0.095 1  12.02
  977.9644 2585.0920 -12.985 21478.15 0.030 1  15.62
 1130.4600 2586.9348  -9.879  1055.83 0.063 1  16.25
  573.0176 2589.2336 -11.199  3991.27 0.033 1   9.76
 1696.3014 2588.8586  -9.390   729.19 0.085 1   8.31
  900.0187 2590.1306  -9.772  1163.47 0.061 1   8.87
 1815.1357 2590.9810 -11.510  5247.49 0.049 1  10.94
 3370.0000 2591.3765 -11.007  3097.38 0.042 1  11.29
 3531.1685 2595.2207 -11.779  6706.65 0.023 1  15.38
 2555.2539 2599.4136  -9.115   498.77 0.083 1   7.68
  629.2645 2600.8228  -9.319   730.92 0.076 1   7.72
 1879.3071 2603.3154 -12.374  9863.22 0.041 1  12.96
 1304.2986 2603.5396  -9.878  1010.72 0.056 1   8.15
 1277.1482 2606.5303 -10.138  1277.99 0.050 1   8.70
 3636.4229 2606.8467 -12.033  7887.16 0.023 1  12.72
 1404.6465 2608.4626  -9.610   730.43 0.083 1   8.84
 3230.5884 2609.3960 -10.556  1842.75 0.036 1   9.97
 3799.3877 2613.4553 -11.200  3103.73 0.021 1   9.03
  832.7534 2615.2427  -9.984  1265.36 0.056 1   7.37
  364.5465 2616.7859 -10.259  1484.08 0.053 1   7.09
  885.0253 2617.3975 -10.583  2138.76 0.040 1  10.64
 2222.3882 2616.8066 -10.867  2510.90 0.055 1  11.24
  260.4912 2621.2944  -9.582   749.98 0.069 1   8.63
 1102.2627 2621.8162 -11.743  6479.08 0.034 1  11.42
 1170.5420 2622.4397  -9.871   879.85 0.095 1  14.04
 3554.9939 2621.8699 -14.796 68348.04 0.000 1  59.13
 3313.6423 2623.8096  -9.393   658.89 0.085 1   5.35
 3547.3425 2626.0852 -13.414 27969.44 0.037 1  46.13
  380.2593 2628.9451  -9.237   720.27 0.087 1   9.41
  727.5904 2629.6411  -9.873   943.42 0.048 1  12.07
 1565.4706 2630.3518 -10.176  1217.90 0.040 1   9.99
  982.1879 2631.7705 -11.243  4189.48 0.041 1  14.87
 1171.1194 2632.0813 -10.978  3350.15 0.039 1  11.03
  435.8336 2634.7852  -9.639   971.24 0.064 1  10.21
  481.4847 2637.2402 -11.773  5930.89 0.017 1  11.27
  215.0286 2638.3269  -9.963  1253.73 0.049 1  12.33
  872.2226 2640.8579  -9.161   689.74 0.086 1  10.17
  344.3302 2644.1997 -11.286  4126.82 0.027 1  11.14
 1117.1622 2646.0154 -12.074  9014.15 0.033 1  13.03
 3265.8879 2645.6172 -11.831  6392.38 0.031 1  10.21
 3380.5408 2645.6663  -9.169   542.49 0.113 1   9.48
  214.7238 2646.6860  -9.679   891.76 0.080 1  10.15
   15.6634 2648.1384 -10.291  1793.01 0.052 1   8.00
 2202.0200 2648.2158  -9.755  1004.06 0.068 1   8.73
 4086.2241 2651.0452 -12.032  8770.04 0.034 1  11.15
  987.0507 2651.7415 -13.052 21669.64 0.033 1  20.88
 3304.7068 2652.6775  -9.722   909.23 0.064 1   7.01
 2568.8506 2653.9563  -9.338   803.25 0.087 1   8.04
 1321.3821 2655.0784  -9.420   674.10 0.094 1   7.44
 3530.2803 2664.2019 -11.395  4431.25 0.028 1  12.02
  299.5704 2668.0732 -11.743  6304.47 0.026 1  12.96
  336.7698 2668.4119  -9.174   589.28 0.121 1   9.91
   91.4002 2669.0107  -9.573   905.31 0.079 1   9.94
  831.6782 2669.8438 -11.615  5586.92 0.025 1  12.09
 3802.4758 2670.6643 -10.688  2095.98 0.048 1   6.41
 2796.6853 2671.8833 -10.698  2206.94 0.061 1   8.53
 1648.7976 2673.3159 -10.170  1464.68 0.064 1   9.33
 1488.0575 2677.2820  -9.736  1034.03 0.075 1   8.82
 3638.3625 2678.3618  -9.870   953.27 0.067 1   7.37
  390.8743 2680.1021  -9.936  1340.39 0.042 1   8.42
 2556.3960 2681.2183 -11.696  5403.22 0.039 1  11.62
  884.4100 2683.0659 -14.587 67607.00 0.000 1  41.22
 1340.8984 2683.0706 -10.097  1491.92 0.052 1   6.92
 4049.5042 2689.1797  -9.912  1054.46 0.062 1   5.49
 2109.5806 2689.6375 -10.503  1602.14 0.050 1  10.16
 2130.5564 2693.8784 -10.077  1200.74 0.055 1   8.04
  383.6836 2695.8372  -9.741   993.65 0.054 1  11.00
 2005.9052 2695.8389 -11.873  7179.62 0.047 1  14.12
 2086.0598 2695.5718 -11.352  4067.15 0.042 1  10.70
  207.7066 2699.4358 -10.101  1228.76 0.060 1   8.71
 1086.9385 2701.9165 -10.075  1462.43 0.074 1   7.53
  544.0812 2702.8784  -9.233   688.33 0.090 1   8.95
 1244.3495 2704.3606 -11.477  4219.71 0.034 1  11.41
 3083.9629 2707.3201 -10.558  2156.61 0.041 1   9.05
 2040.1615 2708.9868 -12.296 11007.45 0.031 1  12.69
 2100.2351 2709.1768  -9.242   658.68 0.103 1  11.19
 1513.6592 2710.4646 -12.252  8658.36 0.039 1  11.46
 2365.6064 2709.9106  -9.402   716.53 0.072 1  10.21
  664.6184 2714.3945 -10.580  2010.20 0.035 1  10.04
 2591.7117 2714.6538 -10.017  1171.60 0.048 1   7.77
 3828.7947 2715.2415 -11.406  4715.92 0.028 1   7.41
 3146.2288 2717.3193 -11.817  6469.46 0.022 1  10.50
 1263.3661 2723.2058 -10.147  1317.36 0.064 1   7.60
  597.2025 2724.3005 -10.652  2320.62 0.026 1  11.28
 1308.3867 2724.2007 -11.039  3047.66 0.053 1  10.56
 3028.4351 2729.3623 -11.263  3311.55 0.035 1   8.89
  541.9316 2730.4946 -11.080  3173.45 0.029 1   8.37
 4007.5881 2731.4485 -10.545  1820.27 0.038 1   8.22
 1885.8448 2733.4263 -13.843 39363.22 0.049 1  20.50
 2723.5249 2735.5032 -12.680 11835.20 0.028 1  14.04
 2999.1135 2735.1682 -10.827  2366.82 0.341 1   7.46
  589.4191 2736.7915 -12.078  8399.24 0.025 1  11.25
 2465.9441 2736.6567 -10.641  2120.88 0.054 1   9.01
 3169.0222 2739.3210 -10.622  2286.52 0.036 1   8.93
 1993.8658 2740.4648 -12.286  9159.91 0.038 1  13.38
 2824.7939 2741.3562  -9.187   620.77 0.093 1   9.92
 3515.0269 2744.2666 -12.752 16479.57 0.023 1  17.77
  213.9996 2745.2551 -11.580  5730.88 0.025 1  10.64
  331.3439 2748.0740 -11.546  5545.66 0.030 1  13.25
 3673.6804 2754.7095 -11.444  4344.39 0.033 1   9.08
 3577.3357 2757.8064 -10.223  1521.24 0.054 1   8.85
 2216.1155 2758.5166 -11.469  4421.79 0.048 1  12.62
 1862.0785 2759.9180  -9.451   861.74 0.066 1   9.55
 3738.5217 2760.6323  -9.784   896.24 0.056 1   7.17
  314.7851 2761.8506 -11.647  6210.87 0.038 1  12.12
 1763.3507 2762.2395  -9.971  1171.18 0.047 1   9.17
 3101.5994 2762.3555  -9.580   771.94 0.059 1   7.76
  486.4004 2762.6875 -11.981  7622.24 0.024 1  13.77
 1122.2013 2762.9275 -11.855  7352.46 0.036 1  10.53
 3884.5718 2765.0239  -9.178   558.07 0.091 1   7.49
 2239.9626 2766.1152  -9.489   877.05 0.064 1  12.76
 3369.3921 2767.8691  -9.443   743.92 0.084 1   9.79
 1257.2684 2770.6445 -12.296  9912.26 0.034 1  11.35
 2181.0830 2772.9612 -12.835 18263.83 0.035 1  13.18
 1543.1814 2776.3059 -10.016  1253.04 0.063 1   9.82
  905.8680 2777.8135  -9.806  1125.54 0.061 1   8.44
  492.0433 2779.5474 -10.913  2718.48 0.033 1  12.98
 2006.7617 2782.6675 -13.037 15828.22 0.134 1  20.02
  542.9825 2786.4714 -11.333  4103.93 0.028 1  12.01
 2551.8079 2785.8682  -9.540   867.47 0.073 1  11.43
 3552.2224 2786.3044  -9.830  1046.84 0.046 1   9.05
 3363.3948 2787.5413 -11.508  4289.98 0.033 1  11.22
 3233.2126 2789.4368  -9.619   812.77 0.071 1   6.94
 2556.4575 2793.0618 -10.765  2317.59 0.036 1   9.87
 2750.0291 2793.1401 -15.438 72462.41 0.000 1  72.38
 1370.5312 2795.3198 -12.083  7441.45 0.036 1  11.51
 1918.0310 2796.2161 -12.389 11809.37 0.038 1  12.89
 2363.9624 2796.8613  -9.752  1069.15 0.070 1   7.90
 3412.7251 2798.6699  -9.019   521.41 0.103 1   7.04
 2033.2880 2804.1152  -9.471   765.48 0.063 1  10.04
 1410.3041 2807.8240 -12.103  8909.95 0.031 1  11.30
 1494.0236 2809.7305 -13.155 22769.59 0.037 1  18.57
 2462.8752 2817.8518 -10.176  1476.54 0.046 1   5.71
  293.3825 2823.2522 -10.606  1859.75 0.181 1  10.26
 2596.3901 2822.5361 -10.902  2422.85 0.045 1  10.70
   88.9736 2828.0715 -10.427  2075.98 0.051 1   9.41
 2366.6677 2831.4861 -10.057  1184.71 0.042 1   9.16
 2715.1650 2833.7410 -11.248  4138.30 0.046 1  16.57
  681.0087 2837.4553 -12.499 12014.26 0.018 1  17.98
 2621.4785 2836.5154 -10.529  1581.79 0.051 1   8.46
  517.5453 2839.8047  -8.999   506.28 0.113 1   8.26
  826.1097 2842.3889 -10.685  2325.63 0.035 1   7.74
  673.0582 2843.1047 -12.221 11179.78 0.023 1  23.12
 1214.1700 2843.8333 -14.779 68112.12 0.000 1  46.93
 2070.1968 2845.1345  -9.713   960.78 0.084 1   7.63
 3673.3621 2846.5962 -12.777 14813.21 0.025 1  15.46
 2711.5042 2848.3318 -11.791  5763.88 0.028 1  17.33
 1329.6606 2849.3940 -11.530  4802.97 0.033 1  10.22
  180.3577 2850.5405  -9.653   899.81 0.078 1   8.44
 3738.1201 2852.8518 -14.247 66401.34 0.000 1  32.55
  671.5857 2856.8328 -11.119  3310.00 0.039 1  13.24
 2294.3274 2857.4590  -9.947  1027.56 0.071 1   8.64
 2484.1160 2857.7043 -10.004  1289.11 0.081 1   7.95
 3710.1572 2859.0339 -10.180  1716.72 0.052 1  15.71
 1054.7970 2859.5691  -9.254   653.50 0.086 1  10.10
 1653.4620 2861.1960 -16.271 73250.93 0.000 1 150.48
  576.4642 2862.2332 -10.057  1213.26 0.041 1  12.58
 2881.0823 2869.4824 -10.515  1836.82 0.059 1   7.05
  319.4826 2871.6362 -10.804  2379.63 0.032 1  10.43
 3309.7361 2874.1448 -12.841 17627.09 0.026 1  16.23
 1049.3892 2875.0420  -9.610   850.18 0.060 1   7.23
 1900.0042 2875.1404 -10.705  2535.28 0.053 1  10.67
   84.7082 2877.7334 -10.697  2374.66 0.037 1   7.90
 3653.7007 2878.0002 -10.027  1299.78 0.055 1  11.73
 3760.6694 2879.2317 -12.247  9897.50 0.020 1  18.47
 3095.3491 2880.2122 -16.607 73844.38 0.000 1 197.95
  537.7784 2882.2705 -10.632  2349.44 0.042 1   9.11
 1027.4241 2881.9163 -10.921  2794.73 0.041 1  10.36
 3156.9155 2884.0381  -9.439   874.73 0.057 1  13.36
 3128.5081 2886.0981 -10.300  1492.27 0.043 1  29.79
 1262.1451 2888.6045  -9.339   676.37 0.069 1  12.57
 3017.2776 2890.3010  -9.206   603.70 0.069 1  11.09
 1941.8789 2892.7231 -10.795  2557.00 0.058 1  10.61
 3856.9373 2894.4255 -12.045  8168.55 0.025 1   9.79
 1658.7700 2895.1038 -10.809  2730.01 0.041 1  24.25
   13.7485 2895.9983 -12.059  9264.76 0.038 1  11.07
   91.4892 2895.9275  -9.681   906.66 0.064 1   7.49
  597.9448 2897.1077 -12.597 15486.96 0.021 1  13.51
 1898.3759 2898.3733 -11.352  3712.68 0.028 1  12.65
 3107.6616 2900.5193  -9.577   745.17 0.108 1  34.58
 3766.5398 2899.7705 -12.943 16656.23 0.022 1  17.26
 4079.7637 2900.8396  -9.692  1036.97 0.088 1   8.01
  787.9877 2902.1218 -11.966  8677.26 0.018 1  11.78
 2303.5811 2902.7458 -11.809  5906.77 0.030 1  15.00
  688.2408 2903.5857 -12.326 10723.67 0.024 1  13.88
  474.0201 2905.1128 -12.832 19085.79 0.023 1  15.47
 2366.9792 2905.1145  -9.618   938.92 0.075 1   7.93
  179.3788 2906.3518  -8.899   406.63 0.102 1   6.79
  286.5447 2906.3999  -9.782   926.12 0.053 1   7.98
  239.0634 2910.2649 -12.317 10911.32 0.052 1  17.61
  467.8909 2909.7305 -10.122  1266.61 0.152 1  18.03
 2230.0430 2910.0552  -9.798  1108.22 0.058 1  22.40
 2173.3215 2911.0669 -11.983  7847.85 0.032 1  12.04
 1486.5012 2913.1689  -9.671   876.62 0.073 1   7.29
 1326.2721 2915.0103 -10.817  2739.42 0.047 1  10.87
 2710.2798 2915.3948  -9.925  1095.08 0.074 1   5.52
  505.0811 2916.6147  -9.627   934.19 0.080 1  10.36
 1667.9420 2916.9998  -9.486   876.49 0.065 1  15.60
 3183.8035 2916.7229  -9.275   637.90 0.070 1  11.34
  650.5090 2918.7864 -10.036  1238.11 0.055 1  12.64
 3657.2029 2929.6895  -9.518   843.61 0.066 1   9.88
 1819.1287 2931.0232 -10.645  2469.00 0.031 1   9.27
 2246.5029 2931.8918 -15.675 68546.62 0.000 1  92.77
  825.3727 2934.2124  -9.903  1136.32 0.064 1   9.82
  643.1642 2934.7437 -12.348 11966.46 0.020 1  14.84
  362.6509 2935.8206 -12.975 19170.05 0.020 1  17.78
 1693.0518 2936.1531  -9.350   757.29 0.079 1  12.97
 1839.2650 2937.7463 -10.367  1745.62 0.064 1   6.66
  676.9419 2939.0864 -10.915  3328.79 0.027 1  12.57
  941.0244 2940.1506 -11.965  8371.26 0.023 1  12.85
  915.2856 2940.8796 -13.135 23402.17 0.016 1  16.46
  213.8512 2942.5706 -12.324 10190.77 0.034 1  12.46
 1361.4264 2943.6289 -10.940  2681.24 0.034 1   8.89
 2596.3748 2944.1899 -11.624  5283.22 0.030 1  12.79
  398.8520 2945.9792  -9.641  1072.12 0.064 1  10.82
 3076.3240 2949.5891 -10.534  1847.33 0.040 1  11.11
 2608.6016 2951.3491 -11.507  4669.93 0.029 1  12.53
 3607.6282 2950.7463 -12.218  8829.77 0.027 1  12.68
 1801.7244 2951.7297  -9.422   700.96 0.084 1   8.01
 1013.3752 2952.7732 -10.949  2968.79 0.026 1  10.45
 1719.3339 2954.1064 -13.357 26355.24 0.040 1  17.71
 1433.3472 2954.8530  -9.691   937.44 0.087 1   7.23
 2162.5417 2962.2583 -10.604  2042.11 0.042 1  10.02
  330.8619 2966.0581 -13.388 31458.97 0.025 1  21.71
 2449.3193 2968.4016 -11.583  4722.66 0.030 1   8.38
 1162.6545 2970.9958 -12.085  8674.48 0.025 1  10.28
  369.7591 2979.7156 -12.095  8795.28 0.031 1  13.39
   62.5605 2981.4832 -11.178  3412.90 0.053 1  10.89
 2200.0002 2987.4272 -10.889  2727.44 0.043 1  13.78
   84.0409 2987.8481  -9.416   847.12 0.078 1   8.52
 3298.2959 2989.2268 -11.542  5076.88 0.030 1   8.79
  538.4254 2990.0144 -10.676  2323.85 0.040 1   8.16
 3140.4988 2990.1633  -9.229   561.73 0.086 1   9.40
  362.2509 2990.9788 -10.353  1919.34 0.044 1  11.04
  572.9648 2994.9697 -12.016  9248.96 0.027 1  10.95
 1531.9603 2997.4614  -9.218   579.43 0.072 1   6.96
  430.2180 2998.6982 -10.449  2010.00 0.035 1  10.73
  567.0041 2998.5381 -10.453  1708.66 0.080 1  16.31
 1416.9030 2999.4282  -9.675   960.78 0.085 1   8.83
 2184.1030 2999.9810  -9.848  1180.41 0.062 1   8.80
 1919.7413 3002.7817 -10.732  2475.68 0.036 1  10.31
 1832.6071 3003.7595 -11.320  3694.74 0.041 1   8.88
 1129.9611 3004.6963  -9.419   781.57 0.081 1   8.31
 2527.8435 3005.5598 -12.274  9227.31 0.023 1  13.93
 2311.6733 3011.9780 -10.434  1825.69 0.048 1   7.65
 2969.3020 3011.6187 -11.485  4480.56 0.035 1   8.90
 1495.4409 3016.4526  -9.377   575.09 0.066 1   7.02
 1538.2559 3018.4636  -9.224   575.52 0.088 1   9.49
 3030.4431 3021.2012 -12.300  9324.20 0.028 1  14.08
 1649.1833 3022.6985 -12.273 10300.76 0.027 1  10.32
  115.2633 3024.3032  -9.606   869.49 0.084 1   9.17
 3136.2446 3024.2075 -11.298  4225.46 0.026 1  11.46
 2003.1031 3024.6399 -12.853 16927.37 0.030 1  15.37
  548.4561 3028.2407 -10.443  1752.52 0.037 1   8.57
  418.0847 3029.1343 -13.231 27333.37 0.023 1  18.43
 1265.3949 3028.5029 -10.082  1160.96 0.042 1  15.11
 1027.7698 3029.7036 -11.553  5184.20 0.023 1  10.33
 1057.9875 3030.1577  -9.398   786.18 0.076 1   9.43
  727.2548 3031.3860 -13.486 28635.65 0.011 1  17.84
 1253.3861 3032.2571 -11.654  5216.23 0.031 1   9.60
  275.6806 3033.3264  -9.029   531.06 0.076 1   6.04
 1098.9071 3039.1165 -12.215 10555.01 0.027 1  17.01
  158.4606 3042.3499  -8.904   428.98 0.093 1   8.15
  309.4486 3043.8352 -10.161  1486.51 0.049 1   9.31
 1104.3717 3043.9324 -11.604  5369.76 0.037 1  16.80
 1316.3518 3043.9377 -12.014  8292.16 0.025 1  12.86
  828.9014 3046.6282  -9.948  1227.91 0.048 1   9.58
 2532.4978 3046.8208  -9.666   885.50 0.071 1   9.18
 2586.5884 3046.6785  -9.948  1028.29 0.040 1   7.30
 2885.9111 3048.8723  -9.949  1256.26 0.055 1   8.93
 3209.5867 3049.0999 -10.071  1247.20 0.075 1   8.64
  115.7117 3051.3838 -10.821  2700.09 0.041 1   9.36
 3886.1858 3053.4502  -8.993   481.78 0.109 1   7.78
 2673.5376 3055.5051 -12.381  9031.74 0.023 1  13.92
 3975.5376 3056.4355 -10.162  1298.38 0.053 1   7.09
  992.2214 3057.3000  -9.941  1176.07 0.050 1   7.27
  856.1367 3057.8093 -11.861  7638.35 0.019 1  12.85
 3589.1150 3058.2197 -11.103  3806.91 0.033 1  10.70
 3107.5283 3063.3271 -12.188  8221.92 0.024 1  12.75
 2783.1748 3066.4690 -10.411  1692.85 0.036 1  11.63
  494.9055 3068.3831 -12.448 12434.79 0.031 1  13.52
  779.7203 3068.0129 -11.856  7414.88 0.023 1  12.71
  964.1572 3068.1301 -10.362  1913.00 0.036 1   9.52
 1250.4769 3069.1863 -10.283  1481.73 0.033 1   5.40
  610.9855 3070.7534 -11.568  5669.94 0.031 1  13.41
  143.5808 3073.7644 -11.766  5975.24 0.036 1   7.73
 3450.9431 3075.4343  -9.765   997.48 0.053 1   8.79
  905.0864 3078.3850 -10.803  2595.18 0.034 1   7.27
 2959.8457 3079.0710 -10.913  3121.34 0.028 1   9.22
 2814.0320 3079.8706 -13.696 39727.34 0.032 1  22.38
 1464.8707 3080.5630 -13.760 35808.84 0.032 1  19.91
  668.5485 3090.3784  -8.992   459.59 0.093 1  16.13
 1527.5464 3089.7751 -11.224  3327.96 0.041 1   9.70
 2898.4556 3089.6301 -11.793  5816.80 0.027 1  11.98
  454.9765 3090.5842 -10.121  1419.50 0.049 1  10.92
 3443.0645 3092.4541 -10.959  2921.84 0.032 1  11.29
 1360.6594 3093.9707 -10.915  2958.00 0.036 1  10.28
 1851.4333 3093.8030 -11.096  3212.45 0.036 1  11.17
 2662.8027 3095.3767 -10.723  2365.11 0.040 1   6.46
 4071.9670 3098.9075  -9.997  1412.05 0.045 1  10.03
 1652.2877 3100.3516 -10.098  1272.48 0.043 1  10.24
 1759.7760 3100.2776 -12.345 10325.74 0.143 1  11.41
 1430.8600 3101.5637  -9.820  1022.95 0.060 1  10.89
 2250.4912 3103.2407  -9.295   611.66 0.077 1   7.12
 1646.9724 3104.3606  -9.233   619.24 0.095 1  10.99
  647.9570 3107.0007 -14.959 68998.84 0.000 1  54.19
 2871.1345 3108.8347 -10.342  1789.02 0.467 1   9.51
 1304.5001 3109.8845 -12.718 13893.95 0.022 1  13.70
  567.4871 3114.3040 -10.867  2543.47 0.035 1  10.79
  257.5009 3115.6531  -9.523   804.33 0.100 1   8.96
 2098.5515 3117.1433  -9.379   655.09 0.086 1  15.01
  170.7634 3119.2991 -11.351  4532.31 0.031 1   9.96
 1008.3926 3119.4688  -9.884  1010.33 0.060 1   8.47
 3219.7549 3120.0488  -9.664   989.95 0.083 1  11.59
 3100.8018 3122.6741 -11.145  3370.02 0.034 1  11.99
 2193.4985 3124.3247 -13.647 30358.65 0.034 1  19.01
  832.7598 3130.1189 -12.398 12249.47 0.014 1  11.30
 1379.6329 3133.5068  -9.877   996.27 0.055 1   9.17
 2100.9897 3133.2991 -12.435 11932.36 0.031 1  16.93
 1853.5940 3135.3218 -12.348 10108.03 0.027 1  12.50
 3362.3289 3135.8411  -9.870  1154.57 0.040 1   8.37
 1219.8434 3136.8972 -11.003  3357.49 0.038 1  10.21
 1479.6957 3136.6719  -9.617   798.14 0.073 1  11.34
 2929.1343 3141.3242  -9.781  1046.57 0.053 1   8.72
  544.5249 3143.3257  -9.281   603.51 0.077 1   7.43
 2340.1826 3143.7168 -10.852  2737.76 0.050 1   8.83
 3826.2534 3147.0129  -9.503   874.06 0.067 1   8.81
 1166.7216 3148.7090 -10.935  2809.76 0.032 1   8.46
 3182.0540 3150.0952 -14.234 66491.38 0.000 1  34.88
 2348.6047 3153.1685 -10.895  2746.01 0.040 1  10.90
 4065.9360 3152.9431 -12.804 19031.45 0.033 1  14.71
 2060.9746 3156.6025 -12.398 10777.03 0.034 1  28.61
 1684.2706 3160.1597  -9.243   701.68 0.080 1   7.33
 2673.4771 3160.8645 -11.739  5768.54 0.031 1  14.61
  439.9874 3164.9932 -12.168 10534.19 0.031 1  13.46
 1635.3062 3167.1587  -9.118   609.96 0.067 1  10.48
 1786.2402 3168.3750  -9.946  1075.95 0.070 1   7.41
 3781.5471 3168.4187 -12.426 10166.58 0.029 1  12.56
 1510.0690 3170.2456  -9.219   653.94 0.074 1   7.46
 2612.7581 3170.4741  -9.207   537.72 0.061 1   8.11
  323.2258 3170.7366 -10.660  2464.11 0.039 1  10.91
  884.5891 3172.6501 -10.647  1963.18 0.029 1  11.27
 2368.5105 3173.5791 -11.753  5168.93 0.027 1  12.38
  536.4240 3176.7571  -9.073   585.82 0.085 1  17.65
 3194.1348 3178.1975 -10.497  2081.37 0.035 1  10.78
 1275.1572 3181.2776  -9.855  1161.57 0.054 1   9.34
 1211.2456 3183.2922 -11.692  5797.34 0.025 1   8.81
 2030.4851 3183.2532  -9.844   987.23 0.055 1  27.62
 1327.0337 3184.7368  -9.632   916.64 0.055 1   7.41
 1680.4497 3184.8821  -9.966  1167.21 0.054 1   9.82
  337.4331 3186.0085 -11.031  3211.87 0.039 1  11.47
 2703.8660 3186.3794 -14.347 66670.58 0.000 1  37.18
 1989.0476 3189.1172  -9.761  1110.27 0.063 1   9.89
 3074.4790 3190.1252 -10.275  1447.78 0.041 1   8.77
 1757.9130 3190.9368 -10.664  2492.08 0.045 1   8.15
 2063.2173 3191.4810  -9.164   841.59 0.478 1  78.18
 3011.0876 3194.4243 -11.269  3859.75 0.027 1  10.78
 2005.9960 3198.9736 -11.050  3471.58 0.045 1  12.42
 2076.9590 3199.0383 -16.889 75799.62 0.000 1 257.92
 3467.5708 3202.2722  -9.955  1139.84 0.042 1   8.85
 3961.3884 3206.7219 -12.279 10110.59 0.035 1  12.21
  747.6107 3208.5017 -13.137 19733.94 0.015 1  17.32
 1602.0127 3209.6189 -10.571  2055.25 0.048 1   5.37
   39.7271 3212.3472 -10.592  2190.27 0.071 1   9.45
  669.3728 3211.5483  -9.604   878.40 0.070 1   8.41
 2727.4302 3214.3347 -13.117 18751.57 0.023 1  20.96
 1164.1794 3216.6970 -10.445  1936.58 0.032 1  11.06
 3087.9680 3217.4392  -9.476   777.79 0.054 1  10.08
 3693.7778 3218.3989 -10.703  2395.47 0.034 1   7.30
 3852.4231 3218.9006 -12.343 10920.62 0.030 1  13.83
  284.9616 3219.7844 -10.959  3390.92 0.037 1  10.39
 2258.5674 3220.1904 -11.221  3549.39 0.043 1   8.06
   54.1721 3221.3330 -11.517  5167.89 0.048 1  10.85
  564.5530 3222.4177 -16.405 71312.24 0.000 1 185.93
 1884.1255 3222.3958  -9.228   595.96 0.069 1   6.66
 1087.4386 3226.5596 -13.096 18966.53 0.013 1  16.62
 2643.8987 3227.6338 -10.190  1446.03 0.047 1  10.12
 4000.6809 3228.0938  -9.526   873.23 0.084 1   7.72
  698.1954 3230.3411 -10.152  1450.32 0.041 1  10.33
 1027.4943 3234.4587 -12.910 15115.95 0.018 1  17.41
 1326.2108 3235.8833 -12.296 11158.70 0.022 1  13.88
 2183.9688 3236.5854 -12.979 18664.35 0.026 1  17.84
 2660.3843 3236.6575  -9.188   593.26 0.066 1  11.72
   59.9044 3240.6047 -10.447  1901.56 0.068 1  11.97
  687.3324 3240.6548  -9.783  1044.35 0.055 1  11.31
 3878.3611 3243.5840 -11.292  3940.62 0.034 1   8.93
  437.8609 3245.4739 -10.817  2562.88 0.029 1  10.14
  121.0017 3245.9639  -9.345   799.69 0.083 1   8.75
 1411.6713 3246.4373 -11.103  3131.35 0.040 1   9.12
 1054.4468 3247.5398 -10.852  2355.90 0.031 1  11.28
 1359.0575 3247.5476  -9.407   677.16 0.059 1   9.21
 2813.6650 3248.9773 -10.515  2069.98 0.037 1   9.76
  708.9333 3251.2786 -12.025  8540.90 0.023 1  13.44
 1301.4695 3255.0908 -12.614 12753.78 0.020 1  13.65
 2409.6418 3254.6414  -9.982  1087.06 0.052 1   7.93
 3715.2898 3256.2124 -10.430  1855.61 0.026 1   8.09
 3768.0339 3256.9780 -13.686 42448.26 0.031 1  23.89
 4081.9390 3256.7744 -11.906  7974.57 0.039 1  12.05
 3091.7285 3258.1775 -11.661  6132.67 0.021 1  11.75
 1120.2462 3260.3032 -10.107  1323.44 0.040 1   9.31
 1816.2864 3263.2207 -13.258 24021.98 0.029 1  19.54
 1170.3523 3264.0886  -9.892  1140.52 0.048 1  10.32
 3320.3467 3265.5417 -10.811  2382.02 0.032 1  12.59
  104.4031 3266.4233 -12.205  8323.45 0.035 1  13.55
  434.3863 3267.1123  -9.040   567.04 0.093 1  10.76
 1870.8604 3267.3801 -12.537 12609.34 0.036 1  11.24
  390.6974 3269.8699 -13.025 21427.79 0.037 1  13.81
 2270.5059 3269.8049 -10.121  1324.21 0.057 1  10.57
 3783.8684 3271.4727 -11.458  4720.30 0.035 1  13.72
  253.5221 3272.4270  -9.744   870.42 0.070 1   9.12
  143.3495 3272.8445 -11.804  6984.33 0.046 1  14.02
 3402.4739 3272.9219 -11.187  3488.55 0.016 1  11.04
 2629.4949 3274.3557 -11.982  6664.15 0.030 1  12.09
 2717.0503 3273.8521  -9.886  1217.04 0.071 1   8.71
 1747.0791 3279.0730 -12.045  9051.61 0.028 1  11.61
 3195.2053 3279.6729 -11.005  3142.06 0.028 1   8.08
 1803.3085 3280.4761 -10.243  1383.42 0.049 1  11.53
 2349.5833 3281.0945 -10.217  1491.70 0.044 1   9.52
  278.3160 3282.1536 -11.152  3827.93 0.055 1   9.51
 3265.7185 3282.3611 -10.885  2687.90 0.031 1   7.74
 3617.9460 3282.0078  -9.733  1131.80 0.052 1   8.55
  476.9203 3283.8901  -9.764  1182.25 0.065 1   9.19
 3092.8921 3283.8918  -9.996  1349.61 0.040 1   8.85
  920.3619 3285.8188 -10.003  1279.13 0.038 1   6.60
 1814.5645 3286.5159 -10.463  1531.21 0.045 1  13.15
 3302.5950 3290.1011  -9.752   976.09 0.048 1  10.15
 3860.3015 3290.2590 -10.609  2222.39 0.044 1   7.45
  851.5885 3291.1538 -10.728  2384.89 0.032 1  11.78
  343.1847 3291.9927  -9.376   795.55 0.061 1   5.55
 1954.9990 3292.4519 -10.468  1729.53 0.055 1   9.86
 3499.4851 3292.6208  -9.451   685.36 0.077 1   7.80
  820.8712 3295.4268 -10.774  2554.28 0.025 1  11.70
 2582.8391 3295.3066  -9.270   666.92 0.084 1   8.71
   32.3976 3295.6545 -10.150  1411.98 0.056 1   9.01
  103.7427 3295.9219  -9.831  1203.80 0.070 1   9.33
  796.1495 3296.0171 -13.224 26898.77 0.019 1  16.96
  856.7415 3297.2163 -10.321  1796.46 0.029 1   9.48
 3670.9788 3298.7515 -10.390  1842.18 0.053 1   6.83
 1698.0428 3304.8076 -11.546  5629.32 0.031 1  12.15
 3440.2151 3308.4165  -9.243   610.27 0.073 1   6.98
 3878.8962 3310.0051  -9.559  1036.30 0.068 1   8.11
 3752.6240 3311.4749  -9.584   783.62 0.082 1   7.18
  283.6284 3312.4092 -10.471  1826.41 0.040 1  12.18
  515.5234 3312.1411 -11.268  3856.38 0.038 1  13.50
   79.6671 3314.0300 -11.279  4362.65 0.059 1  11.08
 3021.1396 3314.0256 -10.295  1743.21 0.058 1   8.47
 2012.5593 3314.7004 -13.090 17886.44 0.034 1  16.65
 3613.2117 3320.1560  -9.471   890.72 0.082 1   7.57
  142.0889 3322.1226  -9.552   971.89 0.085 1   9.39
 1643.9303 3321.9602  -9.511   845.47 0.075 1   8.07
 1437.5817 3328.2717 -10.726  2305.57 0.036 1  10.40
   61.7080 3335.2561 -13.790 43173.87 0.042 1  22.65
  406.6351 3334.8750  -9.574   878.77 0.080 1   9.27
 1075.4508 3339.0239 -10.727  2335.23 0.030 1  10.60
 2898.0730 3338.5271 -11.771  5868.04 0.028 1  10.53
 1320.1510 3341.9441 -12.114  9650.15 0.025 1  12.25
 1890.4425 3346.5825 -10.556  1801.52 0.047 1   7.51
 2168.2302 3352.5232 -10.109  1242.96 0.063 1  13.78
  293.1744 3356.2151 -10.356  1751.86 0.065 1  21.37
 3605.3313 3356.4199  -9.386   667.41 0.077 1   8.56
  379.6992 3357.4324 -11.295  4072.02 0.037 1  10.37
 2031.0194 3358.7224 -10.259  1590.38 0.066 1   9.59
  145.0540 3359.6760 -11.192  4139.26 0.062 1  13.12
  291.2470 3362.1406 -12.341 11435.61 0.036 1  17.85
  403.1012 3362.1389  -9.434   821.35 0.073 1   8.42
  676.2139 3361.5403 -10.697  2331.18 0.035 1   9.54
 1175.3666 3365.2522 -12.142  8362.11 0.025 1  10.43
 1496.5471 3365.8269 -11.952  6853.47 0.022 1  10.91
 2051.8882 3367.1050 -10.230  1655.93 0.059 1   8.76
 2244.8604 3366.6982  -9.743  1088.37 0.048 1   9.21
  149.1592 3369.5950  -9.143   576.79 0.086 1  11.78
 2157.2905 3371.3843 -12.977 17134.56 0.029 1  18.11
  453.3386 3372.4114  -9.448   672.82 0.093 1   7.87
 3748.9111 3372.7754 -11.020  3529.23 0.028 1   8.89
 2216.4141 3373.7756 -10.171  1452.40 0.048 1   9.62
 3048.0210 3373.9153  -9.860  1214.22 0.060 1   8.64
  376.7790 3375.2297  -9.646  1018.47 0.070 1  11.43
 1239.5667 3376.5911 -11.544  4271.37 0.021 1  12.19
 1187.0321 3378.0193 -11.461  5477.79 0.026 1  11.60
 2694.0225 3378.6045 -12.140  8892.30 0.026 1  11.52
 3267.4397 3379.8838 -13.504 30135.04 0.018 1  18.81
 3383.3965 3380.3359 -12.745 14018.32 0.015 1  14.47
 4019.3584 3382.0344  -9.703  1065.10 0.076 1   7.05
 1124.2267 3383.0955 -10.342  1854.55 0.045 1   9.10
 2888.7324 3383.3357 -10.828  2680.97 0.029 1  11.97
 2200.9275 3386.8442  -9.725  1112.66 0.064 1   9.01
 2225.7935 3387.7996 -11.491  4272.52 0.160 1  11.30
 2625.5056 3387.5740 -13.587 28094.41 0.029 1  18.53
 1297.5917 3388.8269 -11.374  4108.38 0.027 1  12.22
  323.8795 3391.1199 -12.426 13294.49 0.036 1  13.70
 1947.7716 3392.4810  -9.266   568.98 0.059 1   9.88
 2010.0698 3394.7397  -9.959  1249.67 0.047 1   9.65
 1610.1819 3395.4812 -11.797  5861.37 0.030 1  10.84
 3523.6851 3398.1338 -12.959 19953.98 0.020 1  17.97
 1367.5521 3399.3562  -9.971  1117.01 0.041 1  11.07
  358.8767 3402.3210  -9.120   583.04 0.070 1   6.70
 3648.1282 3401.5789 -11.295  4296.30 0.066 1   8.90
  836.8334 3406.1646 -10.818  2845.06 0.049 1  20.03
  242.0079 3407.0762 -10.982  3511.84 0.051 1  11.61
  907.0633 3406.9338 -11.120  4030.66 0.028 1  15.59
 1237.8577 3407.3091 -11.684  6110.72 0.020 1  10.45
 2456.1660 3410.6201 -11.686  5941.78 0.029 1  10.91
 2475.9143 3411.1018 -10.185  1733.61 0.056 1  11.31
  504.6877 3411.8677  -9.965  1253.03 0.040 1   7.76
   87.4402 3412.4509 -10.914  2524.25 0.059 1   8.72
 3513.9529 3413.3906 -13.289 26285.82 0.021 1  20.18
 1434.9083 3414.2249 -10.267  1716.55 0.057 1   8.30
 1027.3145 3417.3804 -10.618  1973.27 0.044 1  10.74
 3822.1201 3416.9314 -11.029  3652.35 0.030 1  11.14
 1457.5406 3419.3479  -9.815   990.98 0.045 1   7.14
 1190.7626 3424.3521 -13.023 20037.44 0.019 1  15.91
 2766.1096 3423.8237 -11.178  4078.50 0.028 1  10.51
 2958.8684 3423.6516 -10.533  1982.37 0.045 1   5.56
  483.2496 3428.1782  -9.843  1132.62 0.046 1   9.15
  821.8075 3430.1028  -9.774  1132.25 0.047 1  14.95
 3737.5046 3429.6938 -12.813 15295.59 0.023 1  14.84
 2020.0320 3431.5356  -9.949  1125.26 0.045 1  10.12
  982.4459 3432.5125 -10.370  1608.20 0.050 1   6.45
 1278.5394 3433.1580  -9.736   984.63 0.042 1  12.28
 2555.4873 3433.5022 -10.213  1244.49 0.046 1  10.40
 1740.4363 3434.8442 -10.535  1914.79 0.044 1   8.72
 1047.7008 3435.7380 -10.132  1416.98 0.042 1  10.68
  869.3270 3437.5574 -15.760 74109.21 0.000 1  98.15
  709.7048 3439.5918 -10.106  1248.38 0.053 1   6.71
 1806.8370 3440.4287 -13.331 25746.78 0.026 1  24.65
 2296.6516 3442.0950 -12.207  9394.90 0.033 1  12.19
  344.7491 3443.3162 -10.192  1573.19 0.057 1   8.40
 3837.9890 3444.4065  -9.713  1024.10 0.059 1   8.53
 1712.8903 3445.2366  -9.608   945.39 0.056 1   9.61
 2059.1809 3444.9207 -10.703  2673.63 0.039 1   8.51
 2557.2405 3446.2258 -12.882 17748.11 0.028 1  15.91
  814.7741 3447.2908 -10.620  2297.55 0.042 1  15.11
 3574.5022 3448.2732 -12.020  7429.63 0.031 1  13.10
  350.4780 3449.6060  -9.093   528.85 0.093 1  10.01
 1654.8177 3451.7417 -11.744  6295.90 0.028 1  11.35
 2152.4353 3452.6765  -9.842  1036.76 0.051 1   6.95
   22.6484 3453.7878  -9.939  1297.34 0.081 1   7.63
  242.0733 3460.2126 -10.742  2800.93 0.047 1  11.06
 2123.7507 3462.5881 -10.753  2178.63 0.049 1   8.65
 3523.4463 3468.3970  -9.942  1028.43 0.066 1   7.79
 2872.2881 3468.8630  -9.964  1230.14 0.067 1   6.85
 1853.0260 3469.9526 -15.634 73214.50 0.000 1  96.91
  160.2452 3474.0576 -11.370  4994.81 0.050 1   8.63
 2215.8574 3473.9148 -13.598 35472.14 0.035 1  19.06
 2977.8733 3476.3403  -9.230   633.15 0.074 1   9.52
 1868.5457 3477.0947 -11.450  4428.92 0.050 1  26.53
 2051.5994 3476.8413 -10.209  1475.07 0.049 1   8.40
  371.5794 3478.7976 -10.004  1218.29 0.056 1   7.63
 3735.9590 3481.2478 -14.183 67117.87 0.000 1  31.59
 2676.5103 3482.3811 -12.042  7032.25 0.022 1  11.08
  979.4947 3483.4653  -9.325   612.82 0.084 1  11.40
 3954.9980 3484.6301 -10.033  1319.25 0.044 1   6.35
  289.5801 3486.4521 -10.506  1875.40 0.052 1   8.16
 2534.6177 3489.5020  -9.241   555.65 0.067 1   7.76
 3622.0349 3488.6472 -13.724 40205.52 0.025 1  18.15
 3565.3386 3493.5720  -9.896  1121.18 0.078 1   8.05
 3270.4849 3503.4868  -9.487   685.85 0.063 1   7.36
 2841.5408 3504.1323 -10.747  2285.72 0.046 1   8.43
 1645.5526 3505.1990  -9.807  1001.53 0.060 1   9.61
 2137.4507 3505.9805 -12.526 11972.23 0.033 1  12.80
 3130.3169 3514.3223 -10.923  2801.83 0.036 1   6.54
 3579.7080 3513.7480 -10.856  2752.67 0.031 1   9.76
 1503.9702 3520.2837 -10.569  2274.08 0.040 1   8.86
  289.5225 3522.3770 -10.214  1444.01 0.061 1   9.60
  879.2228 3529.6255 -11.318  4284.00 0.030 1   8.57
  960.4891 3530.2737 -10.507  1821.51 0.039 1  11.98
 2289.2515 3530.4578 -11.753  5596.25 0.025 1  12.21
 3929.6479 3529.9275 -11.809  7066.39 0.040 1   7.05
   66.6005 3531.5032  -9.418   708.42 0.100 1   9.12
 1956.3389 3533.1106 -11.699  5953.10 0.034 1  12.68
  952.2628 3536.7810 -11.149  3729.83 0.027 1  11.70
 1171.1971 3536.7446 -10.426  2025.77 0.035 1   8.87
 1364.9073 3539.4023  -9.693   998.44 0.043 1   9.35
 1781.7076 3540.3518  -9.550   825.43 0.058 1   9.36
 2740.8140 3543.7190 -14.530 68937.92 0.000 1  38.74
 3837.0549 3543.5244 -11.486  4884.26 0.039 1   8.96
 3790.3547 3547.2651  -9.717   915.33 0.045 1   9.01
 2289.5422 3547.6370  -9.432   663.76 0.080 1   9.33
 1328.7235 3548.9097  -9.493   824.07 0.058 1   9.91
 1541.1603 3549.1360 -10.002  1360.22 0.052 1   8.55
 1985.9424 3550.2356  -9.457   818.77 0.052 1   8.20
  448.7758 3550.5815 -10.970  2922.65 0.047 1  11.88
  611.1187 3553.3213 -10.839  2845.77 0.052 1  11.72
 4016.4387 3555.0229  -9.446   803.74 0.091 1   8.52
  286.5323 3556.1711  -9.550   814.51 0.070 1  10.14
  700.7733 3556.7944 -10.625  2297.24 0.025 1   7.18
 1149.7191 3557.2559  -9.744  1043.66 0.047 1   9.45
 2229.6006 3563.7156 -11.420  4101.98 0.037 1   9.91
 1014.5950 3565.2622 -11.880  6970.09 0.018 1  12.69
 1037.4958 3568.9761 -12.031  7817.25 0.027 1  14.97
 3592.5151 3569.4197 -12.248  8698.42 0.029 1  11.91
  285.2686 3572.9690 -10.692  2638.69 0.061 1  12.25
 1352.4382 3575.1516 -11.039  3071.42 0.024 1   9.71
 2928.2930 3575.0037 -12.421 12242.60 0.026 1  15.94
  433.8362 3577.7000 -11.018  3338.38 0.037 1   8.97
  965.8497 3578.3484 -10.789  2714.28 0.029 1  10.99
 1610.4523 3578.4937 -11.604  4526.87 0.039 1  11.38
 3248.6125 3579.4717 -10.395  1552.68 0.048 1   6.77
 4006.8108 3582.3291 -10.783  2797.02 0.047 1  12.31
  627.7055 3584.3748 -10.915  2944.76 0.043 1  10.07
 3552.1411 3585.1482 -11.155  3914.70 0.028 1   7.51
 2504.2625 3586.5566 -10.809  2523.12 0.037 1   8.63
 3297.7913 3586.9578 -10.114  1382.41 0.114 1   5.60
 2915.6653 3589.9338 -11.862  7046.01 0.028 1  12.63
  971.0375 3596.9744  -9.961  1403.57 0.040 1  12.32
   89.5319 3597.9102 -12.332 10308.06 0.059 1  13.04
  768.1606 3599.4082 -10.407  1784.06 0.041 1   9.80
 2790.8022 3601.2102  -9.064   565.42 0.119 1   7.21
  511.9626 3602.2773  -9.808  1129.59 0.072 1   9.33
 3984.8347 3601.5430 -13.249 24323.21 0.042 1  13.71
  620.1179 3605.6116  -9.106   591.60 0.077 1   6.27
 2258.1160 3605.5667 -12.125  8614.06 0.023 1  19.34
  441.2997 3608.2268  -8.994   488.42 0.102 1   9.38
 1979.6591 3611.0596 -10.011  1247.91 0.055 1  10.73
 3110.2170 3611.0693 -10.838  2966.17 0.020 1   7.36
 2259.9736 3614.9253 -11.701  6622.80 0.031 1  15.18
 1082.1501 3616.5935 -10.842  2683.39 0.036 1   8.94
 1967.6202 3618.2466 -12.025  7594.76 0.038 1  10.37
 2135.3733 3618.3137  -9.314   617.27 0.056 1   8.92
 1173.7299 3619.7493 -10.655  2320.09 0.036 1  11.36
 1341.6149 3622.9263 -10.939  2982.71 0.028 1  10.18
 1534.4194 3623.0945 -12.721 14573.53 0.023 1  12.11
 3780.4490 3623.6113 -12.165  8741.74 0.032 1  11.24
 2222.5403 3625.0398  -9.745   956.34 0.052 1   9.23
 1047.1371 3627.0771  -9.526   876.23 0.056 1  10.28
  634.1556 3627.9595  -9.711  1098.36 0.051 1   6.55
  251.6970 3628.7578 -10.894  2806.53 0.047 1  11.85
  220.3711 3630.4014 -13.960 41403.22 0.042 1  21.13
 2389.2031 3634.3337 -10.749  2431.52 0.049 1   8.97
  298.7108 3637.1240  -9.108   588.44 0.111 1   7.07
 3839.7935 3636.8293 -12.055  9047.80 0.033 1  11.36
 2162.7393 3644.4084 -11.140  3487.48 0.037 1   7.39
 2191.9199 3644.6199  -9.259   652.80 0.072 1   6.17
 2867.6248 3646.4961 -11.001  2666.18 0.034 1   7.77
 1264.1000 3646.7427  -9.753  1159.57 0.070 1   7.87
  503.6989 3656.5188 -10.440  1789.53 0.063 1  10.32
  256.0082 3659.4431 -11.807  6335.65 0.046 1  12.06
 1557.0714 3658.7839 -10.492  2106.41 0.042 1   9.79
  895.8276 3660.1465 -10.630  2423.15 0.034 1   9.56
   43.1641 3670.3318  -9.493   823.68 0.099 1   7.67
 2981.3328 3671.0542  -9.991  1271.58 0.042 1   6.67
 2470.7732 3677.1624 -10.058  1423.21 0.045 1   6.26
 2653.4629 3677.0688  -9.775   975.34 0.040 1   5.52
  174.1184 3680.0317 -11.168  4310.15 0.058 1  10.29
 2082.8040 3681.1318 -11.527  5417.71 0.039 1   9.38
  327.4065 3681.4587 -11.282  3723.45 0.052 1   8.87
 1364.0869 3685.5776 -11.948  7341.98 0.027 1  11.10
 1683.9669 3693.8235 -10.137  1500.10 0.060 1   7.80
 2318.4436 3694.9565  -9.641   890.42 0.048 1   9.20
 3576.4902 3697.3240  -9.581   763.82 0.065 1   5.19
  577.2513 3697.8618 -12.615 15488.33 0.038 1  13.16
 3345.8030 3697.9014 -10.108  1447.97 0.040 1   7.73
 1033.9755 3698.5166  -9.120   525.38 0.057 1   8.72
  538.3538 3699.6360  -9.765  1003.03 0.052 1   8.13
  650.7663 3699.7280 -11.824  6817.00 0.031 1  10.90
 1086.9036 3700.9968 -10.594  2520.59 0.037 1  11.82
 2888.5774 3702.1665  -9.302   607.73 0.071 1   9.23
  236.6185 3705.3418  -9.870  1161.88 0.087 1   8.34
   48.0945 3706.4050 -10.471  1912.80 0.089 1   9.48
 1057.2146 3706.8909 -12.271 11343.76 0.025 1  10.54
 2927.9165 3707.6638 -11.310  4320.50 0.031 1  10.53
 2150.8713 3709.5918 -12.485 11691.02 0.029 1  14.57
 2542.2046 3710.4856  -9.504   757.12 0.054 1   7.65
  911.3795 3712.0811 -11.631  5655.62 0.027 1   9.40
 2766.2983 3712.3870 -12.179  8642.67 0.017 1  13.92
 2432.2705 3714.0442 -13.083 22072.33 0.032 1  18.67
 1864.0646 3714.7720 -10.718  2590.62 0.045 1   9.14
 3401.5566 3716.4333 -12.285  8988.56 0.017 1  10.22
 3527.4907 3717.1553 -10.651  2121.85 0.035 1   8.40
 2250.2783 3721.5691 -12.509 11853.70 0.025 1  12.71
 3964.8596 3722.5913 -11.662  6105.32 0.048 1   7.76
 1303.5920 3725.4409 -11.680  5306.49 0.017 1  13.96
  338.9753 3730.4424 -13.124 21851.16 0.047 1  14.46
 2535.4534 3730.4221  -9.908   958.24 0.044 1   6.84
 3166.4177 3732.8875 -11.620  5581.58 0.023 1   9.16
 3379.3303 3736.8708 -10.845  2981.56 0.037 1  10.35
 1790.5024 3737.9346  -9.641   856.09 0.051 1   9.06
 1203.7429 3738.8953 -12.604 14540.96 0.014 1  20.24
  580.7894 3743.2817  -9.451   839.16 0.080 1   7.93
  272.5861 3746.0623  -9.436   807.65 0.082 1  10.62
  810.5411 3746.9673  -9.393   657.44 0.074 1   6.39
 1221.6432 3748.7197 -10.911  2647.38 0.030 1  13.38
 3826.9504 3749.0872 -10.221  1787.74 0.046 1   8.98
 3978.1411 3749.2310 -11.620  6260.12 0.054 1  10.57
 2462.6389 3753.3689  -9.341   655.98 0.059 1   8.19
  765.4953 3756.0752 -10.637  2175.20 0.050 1   8.60
  499.8053 3757.0142 -10.107  1544.59 0.068 1  10.82
 2807.2283 3759.4939 -11.630  5303.76 0.023 1   7.48
 2954.9404 3760.3164 -12.058  8723.48 0.026 1  12.03
  278.7807 3765.5569 -10.182  1377.44 0.061 1  10.00
 2755.3293 3765.1089  -9.901  1188.56 0.050 1  10.45
 3436.1497 3765.2310  -9.868  1203.99 0.048 1   7.77
 3416.6343 3766.3049 -10.383  1714.01 0.050 1   7.79
  322.1867 3766.5217  -9.358   670.33 0.061 1   9.62
 1059.7452 3766.8687 -11.701  6325.64 0.025 1  10.39
 3791.7954 3770.1406  -9.720  1101.18 0.054 1   6.74
 1438.9015 3771.6648  -9.962  1265.00 0.033 1   8.82
 3900.5303 3773.8943 -12.001  7641.90 0.048 1  11.64
 3315.6165 3775.5054 -10.100  1254.41 0.046 1  10.26
 3324.6108 3776.3372 -11.359  4275.24 0.023 1  10.44
 2165.5139 3778.2869  -9.653   853.90 0.054 1  11.53
 1750.7854 3779.2009  -9.559   896.08 0.084 1   7.93
 1176.3827 3780.7620 -12.732 13261.92 0.130 1 110.28
 1322.2240 3783.5317 -15.942 75371.34 0.000 1 117.67
 1168.1200 3784.5588 -15.920 75597.53 0.000 1 121.98
  252.1291 3786.4580  -9.198   579.73 0.073 1   6.35
 4044.3325 3785.9646  -9.008   630.32 0.105 1   6.42
   83.1607 3786.5405 -10.644  2311.76 0.070 1   9.05
 2321.7205 3787.5918 -11.968  6830.65 0.026 1  10.83
 3835.2644 3787.5430  -9.876  1172.64 0.067 1   7.07
 3719.1682 3788.6287 -11.446  5211.88 0.045 1   9.10
 2185.6272 3793.2090 -12.387 11495.99 0.031 1  14.95
 2891.2087 3792.4780  -9.312   643.32 0.044 1   5.61
 1949.3658 3795.0911 -10.254  1332.88 0.233 1   7.14
 2024.8165 3795.7583  -9.491   823.43 0.051 1   9.54
 2536.8513 3795.7429 -10.433  2032.89 0.027 1   9.57
 3207.8501 3798.9048 -11.659  6422.40 0.022 1  10.83
 3974.4810 3798.9248 -12.831 17289.26 0.047 1  15.23
 2146.0562 3801.2629 -10.885  2963.51 0.041 1   6.99
 2801.1140 3803.1648 -10.317  1851.67 0.043 1   7.94
   66.2652 3807.1477  -9.673  1008.80 0.094 1   7.36
  634.1909 3807.3589  -9.123   569.70 0.092 1   9.50
  103.6258 3808.3535 -10.385  1826.63 0.074 1  10.57
 3055.3450 3808.2183 -12.336 10668.76 0.019 1  12.07
  332.5122 3808.5359  -8.976   440.11 0.106 1   6.89
 3820.4585 3811.7832 -10.079  1341.50 0.057 1   9.67
   86.9296 3813.9216  -9.514   921.52 0.085 1   9.78
 1762.2858 3815.1990  -9.071   560.41 0.072 1   8.45
 1165.2040 3815.5417  -9.795  1051.83 0.046 1  23.48
 1587.4196 3820.0449 -11.676  5666.05 0.032 1  11.01
 2567.8435 3821.3970 -10.523  2055.60 0.045 1   8.81
 3192.1523 3820.6946 -10.996  3409.35 0.035 1  10.18
 1773.3782 3821.7876  -9.724   955.45 0.058 1   8.61
  601.0120 3825.1741  -9.821  1170.06 0.045 1   9.48
 1016.8419 3826.1218  -9.643   988.98 0.063 1   8.83
  400.8164 3827.9924  -9.288   696.60 0.051 1   6.39
  484.9319 3829.3167 -12.395 12350.01 0.046 1  11.66
  137.9288 3831.4124 -11.252  4121.74 0.078 1   8.17
 1972.3451 3831.0400 -10.489  1977.77 0.048 1   9.46
 2461.2822 3830.9138  -9.323   727.20 0.057 1   6.81
 3172.0183 3831.7131 -10.195  1667.05 0.036 1   9.98
  808.5240 3834.7993  -9.345   658.19 0.072 1  10.67
 1359.4475 3835.1311 -11.569  5117.86 0.023 1  14.33
 2714.0444 3835.2810 -11.273  4370.87 0.026 1   9.38
  802.4135 3836.6484  -9.322   695.23 0.078 1  10.98
 1017.8481 3836.9626  -9.623   961.57 0.064 1   9.06
 3612.1897 3840.2056  -9.885  1271.68 0.066 1   7.92
 2403.6267 3842.7266 -10.669  2153.46 0.037 1   8.72
 1910.7054 3843.9277  -9.417   786.38 0.069 1  11.26
  921.2550 3846.3496  -9.578   833.45 0.062 1  11.37
 2536.6882 3847.5178 -12.567 11842.93 0.025 1  13.80
  210.6168 3850.4568 -12.333 10124.54 0.063 1  14.11
 2829.2202 3850.7688 -11.166  3852.56 0.029 1   8.78
 3085.1479 3851.1816  -9.650  1033.85 0.055 1   9.53
 1951.9844 3851.6096 -11.106  3350.80 0.039 1  13.01
  223.6125 3856.4473  -8.856   415.09 0.124 1  11.01
 3189.7078 3858.9497  -9.301   711.08 0.052 1   8.23
 3945.3752 3859.8284 -12.983 21309.39 0.046 1  13.71
 1064.9508 3862.2576 -10.006  1339.95 0.038 1   8.98
 1957.3518 3865.4048 -12.173  8110.26 0.024 1  14.97
 3927.5198 3867.2793  -9.563   820.92 0.097 1  12.51
 1113.1329 3869.6575  -9.850  1137.90 0.043 1  10.13
  990.0042 3870.5303 -12.248  9524.85 0.021 1  12.29
 1253.3627 3876.9622 -11.374  4710.73 0.027 1  10.42
 2877.1855 3876.8149 -12.371 12018.87 0.021 1  13.53
  877.1151 3881.5432 -10.650  2274.04 0.037 1  18.14
 1055.2424 3882.4336 -11.419  4143.22 0.024 1   8.81
 1539.3921 3881.4919  -9.946  1157.32 0.052 1   9.16
 1977.7814 3881.8713 -11.390  4749.21 0.043 1  11.43
 3197.0669 3884.7292  -9.045   621.05 0.088 1   8.38
   15.0503 3886.2129 -10.733  2770.04 0.068 1   8.94
   57.3132 3888.1362  -9.190   616.60 0.117 1   6.66
 1212.3689 3888.2639 -11.251  3792.41 0.023 1   9.83
 2518.4490 3897.7849 -12.536 12442.55 0.032 1  12.98
 2284.4080 3900.2573 -12.250  9165.69 0.028 1  12.99
 3423.5569 3900.3481 -11.213  3517.30 0.038 1   9.16
 1559.1294 3900.8552 -10.820  2946.62 0.034 1  10.48
 2839.3210 3901.4490  -9.230   594.71 0.080 1   8.17
  876.6527 3903.2913 -10.518  2087.11 0.030 1  42.84
 2177.9634 3904.3118 -10.578  2233.99 0.047 1  16.20
  111.3832 3907.1826 -13.098 21201.95 0.063 1  14.89
  727.3490 3909.0530 -11.168  3867.16 0.043 1   7.72
 1626.6279 3909.0088  -9.357   691.83 0.072 1   5.61
 1033.7551 3911.2913 -10.463  2076.74 0.043 1  10.72
  954.1806 3913.3721  -9.727   971.92 0.044 1  13.57
 3436.5054 3918.2207  -9.441   721.15 0.070 1   8.18
 3638.0681 3918.1252 -16.626 81478.43 0.000 1 204.75
 1203.8462 3920.0996 -12.230 10712.75 0.026 1  12.07
  893.5330 3923.7488 -16.466 80821.34 0.000 1 175.47
 2435.0576 3927.0552 -10.647  2591.84 0.043 1   9.41
 3771.7217 3926.7654 -12.349 11517.24 0.040 1  13.53
 1428.3130 3928.6628 -10.949  3028.43 0.024 1   8.08
 2468.1897 3929.2288 -10.716  2593.08 0.027 1   7.03
 3077.0559 3928.7036  -9.613   998.48 0.053 1  10.71
  606.2301 3929.7148 -10.142  1523.18 0.047 1   9.14
  654.6819 3934.5554  -8.966   474.84 0.105 1  10.43
 2155.9231 3936.4448 -14.708 72860.78 0.000 1  44.42
  665.8754 3938.3079  -9.426   805.38 0.070 1  10.85
 1280.0248 3938.2422  -9.486   848.59 0.051 1  10.67
 2321.0295 3938.1416 -12.843 19172.82 0.025 1  16.98
 3772.6929 3941.8831  -9.535   885.56 0.067 1   9.08
 1613.0343 3946.2622 -10.997  3335.06 0.032 1   8.83
 2649.7883 3946.4124 -11.475  4808.79 0.032 1   7.93
 3233.5654 3945.7808 -12.520 11898.75 0.022 1  14.16
 3115.5222 3947.7100 -11.612  5088.99 0.030 1  10.36
 2308.8792 3948.9395  -9.845  1257.91 0.053 1  10.17
 1547.4124 3950.0869 -10.191  1449.41 0.047 1   8.41
 3071.6895 3952.7512 -10.182  1547.57 0.049 1   5.95
  257.8599 3954.4697  -9.309   663.00 0.093 1   6.28
  366.1384 3954.0830 -13.088 24166.80 0.047 1  15.28
  524.1483 3956.5715 -10.021  1298.30 0.061 1   6.79
 1150.3409 3960.5356  -9.316   637.29 0.053 1   9.64
 1331.4050 3960.4539 -13.266 21751.69 0.020 1  21.82
 1932.5331 3962.1055  -9.882  1027.03 0.057 1   9.12
 3916.4324 3961.5105  -8.894   418.81 0.087 1   7.91
 1434.2872 3963.4084 -11.008  2832.83 0.037 1   8.92
   21.1561 3964.3467  -9.148   551.89 0.096 1   7.37
  625.5443 3963.4951  -9.888  1016.86 0.069 1  11.56
  915.3205 3964.6907  -9.283   702.26 0.060 1  21.34
 1339.4153 3964.4238 -11.587  4540.01 0.031 1  20.16
 3473.5601 3966.3145 -11.128  3297.85 0.047 1   9.05
 3746.5337 3965.7395 -11.070  3260.80 0.053 1  11.94
 4017.5750 3971.0364 -11.519  5215.85 0.054 1   9.57
  785.5766 3972.9365 -10.379  1725.24 0.039 1   9.26
 1387.1133 3973.5806 -10.030  1222.05 0.051 1  10.51
  638.1519 3974.7520 -10.565  2365.22 0.051 1   9.87
  768.0749 3978.3169 -12.084  9152.51 0.034 1  13.24
 2623.8965 3978.3330 -11.681  6308.88 0.022 1   8.04
 2246.3408 3981.9561 -10.558  2168.05 0.036 1   9.36
 1859.5543 3982.9578  -9.695   915.80 0.055 1   8.78
 1901.7384 3984.8022 -12.648 14791.77 0.022 1  12.82
  632.1759 3987.0930  -9.866  1297.26 0.070 1   9.83
  213.1711 3989.5793 -10.109  1411.73 0.071 1   9.10
  989.8033 3991.2539 -11.360  4704.87 0.029 1  10.74
 2000.6707 3991.7844  -9.342   659.50 0.068 1   6.51
  727.8707 3993.6018  -9.830  1091.15 0.082 1   7.42
 3165.5898 3994.4309  -9.226   552.75 0.064 1   7.34
 1031.2421 3994.7517 -10.140  1554.85 0.044 1   8.71
  965.2758 3995.4204  -9.022   481.33 0.079 1  10.80
 1596.2408 3998.8477 -10.607  2384.03 0.033 1  11.81
 2226.5718 3998.5801 -10.580  1823.89 0.042 1   9.02
 1098.6849 4001.3181  -9.139   602.71 0.052 1   8.06
 2680.0891 4001.8130 -11.947  8329.83 0.033 1   9.90
  414.7331 4004.7388 -13.246 25260.26 0.050 1  18.21
 3581.4766 4006.8145  -8.910   449.83 0.086 1   8.38
  604.5278 4009.9988 -11.604  5346.69 0.046 1  11.41
 2315.4536 4011.7288 -10.152  1391.01 0.055 1   7.78
  114.0384 4014.3567 -12.322 11102.36 0.074 1  14.75
 1444.4596 4013.5991  -9.873  1017.73 0.047 1   8.58
 3179.2852 4014.1951 -10.313  1777.25 0.052 1   8.24
 2640.4470 4016.2944 -10.343  1551.47 0.042 1  10.35
 2816.2905 4016.1270  -9.901  1239.31 0.049 1   7.53
 3378.0876 4016.9089 -11.640  6652.56 0.025 1   8.29
 1073.8185 4019.2671 -11.647  5926.72 0.053 1  10.33
 2565.6836 4020.9485 -10.509  2070.83 0.046 1  10.21
  194.5826 4024.3687 -10.466  1927.08 0.082 1  12.35
 1012.6013 4024.4751  -9.376   676.50 0.062 1   9.14
 2759.7346 4023.5898  -9.524   781.86 0.044 1   6.21
 1203.4648 4024.6453  -9.174   583.54 0.061 1   9.87
 1310.5964 4025.2419 -13.228 23878.55 0.028 1  19.40
 1366.2233 4025.3494  -9.841  1119.07 0.050 1  11.44
 2936.0806 4025.4265  -9.057   550.50 0.080 1   6.82
 1601.3837 4025.5603 -11.259  3807.44 0.027 1  10.59
 2784.6125 4029.7632 -10.147  1317.48 0.046 1   7.77
 1189.4315 4031.2583  -9.260   640.05 0.076 1   7.18
 3067.5122 4030.8689  -9.195   556.51 0.056 1   7.81
 3871.1465 4031.0786  -9.128   707.99 0.104 1   8.12
 1464.9611 4034.4429 -12.241  9784.68 0.026 1  12.18
 3885.6848 4033.5798 -11.777  6211.38 0.052 1   8.53
  426.8894 4036.3396  -9.552   914.00 0.080 1  12.58
 1346.5898 4036.4031  -9.359   646.00 0.075 1  10.68
 2500.3657 4037.1069  -9.478   827.45 0.065 1   7.55
 2581.1035 4037.2192 -12.421 12845.53 0.021 1  14.50
  416.9724 4037.6106 -11.222  3523.67 0.109 1  11.38
  156.5210 4039.4763 -14.270 68646.35 0.000 1  34.13
 1400.6641 4044.1909 -11.455  4980.86 0.033 1  10.19
  464.7631 4045.1123  -9.534   879.03 0.066 1   9.53
   27.9022 4053.1118  -9.704  1137.40 0.116 1   9.64
 1311.6235 4054.4163 -10.572  1996.12 0.031 1  10.52
 1924.3589 4057.1719 -10.773  2581.23 0.034 1   9.56
  529.0055 4059.3269 -10.032  1362.39 0.054 1   6.93
 3237.8679 4058.6355  -9.370   788.37 0.060 1   6.13
  310.5230 4059.7817 -15.266 79853.15 0.000 1  69.05
 3305.0027 4064.4326  -9.367   696.42 0.076 1   7.58
 3082.3250 4064.5779  -9.077   523.08 0.091 1   5.26
   81.7661 4066.0222 -10.140  1623.27 0.104 1   8.28
 1599.0259 4076.4082 -10.060  1417.35 0.048 1  11.99
  249.5846 4077.2744 -11.009  3106.90 0.071 1  13.14
 1880.1732 4077.4009 -11.043  3273.87 0.026 1   8.49
 2187.3042 4076.5002 -12.283  9474.66 0.024 1  10.20
 4089.1467 4077.7319 -11.137  4079.76 0.055 1   8.16
  169.8745 4080.9680 -12.331 12192.01 0.072 1  12.39
 2352.0828 4080.9177 -10.235  1762.73 0.043 1   6.41
 3708.2141 4081.6128  -9.189   623.12 0.057 1   7.18
  400.5278 4089.6089 -11.039  3032.37 0.054 1  10.32
 2648.9768 4091.0312 -11.972  8883.23 0.032 1  12.47
#
#....x.... ....y.... ...m... ....p... ..q.. k ...s..  
#
#  (01)      (02)     (03)     (04)   (05)     (07)   
#
