#
#--------------------------------------------
# ARGUMENTS
#--------------------------------------------
#  ARG0000: ./../hst1pass.e
#  ARG0001: HMIN=5
#  ARG0002: FMIN=1000.0
#  ARG0003: PMAX=66000.0
#  ARG0004: PERT=1
#  ARG0005: OUT=xympqks
#  ARG0006: PSF=./../psfs/STDPSF_WFC3UV_F606W.fits
#  ARG0007: id8048dyq_flc.fits
#
#=================================
# WFC3/UVIS POSTFLASH INFO
#
# FLSHCORR: 'COMPLETE'
# FLASHDUR:                  3.1               3.10
# FLASHLVL:                    8               8.00
# FLASHLVL:                    8               8.00
# FLASHCUR: 'LOW    '                           L
# SHUTRPOS: 'A    '                             A
# DARKTIME:           113.699296             113.70
# DARKEST :                                    1.06 2018.50
#
#
#================================
# BASIC STAR-FINDING PARAMETERS
#
# FILENAME: id8048dyq_flc.fits
#   NAXIS1:  4096
#   NAXIS2:  4096
#
#   CRPIX1:    2048.0000000000000000000000
#   CRPIX2:    1026.0000000000000000000000
#   CRVAL1:     201.5364272924400097508624
#   CRVAL2:     -47.6336630203250024351291
#    CD1_1:      -0.0000062738011073863172
#    CD1_2:      -0.0000090938958797745577
#    CD2_1:      -0.0000090938958797745577
#    CD2_2:       0.0000062738011073863172
#
#     HMIN:          5
#     PMAX:      66000.0
#     FMIN:       1000.0      1000.0
#   PIXFIT: 5x5
# HISTMODE:          7.3
# HIFLAG  :      64000
# HIFLAG_I:      64000
# LOFLAG_I:        -50
# DOAPPHOT:          F
#      PID:      14662
#     FILT:      F606W
#    EXPTI:        104.0000
#    EXPTE:        104.0000
#     rDAT:       2018.49721527
#  TIMESTR:      '11:37:29'
#  DATESTR:      '2018-06-30'
# APERTURE:      'UVIS-CENTER     '
#     GAIN:          0.00
#
#  PSF_INP: ./../psfs/STDPSF_WFC3UV_F606W.fits
#  PSF_USE: id8048dyq_psf.fits
#   NPERTs:    1
#
#  GDC_INP: NONE
#
#
#================================
# PSF INFO
#
# PSFFILE_USE: id8048dyq_psf.fits
#
#      CENTRAL PIXEL ARRAY
#                           0000    0682    1365    2048    2731    3413    4096
#                             01      02      03      04      05      06      07
#               4096 08   0.1227  0.1346  0.1414  0.1431  0.1455  0.1470  0.1463
#               3413 07   0.1311  0.1377  0.1407  0.1426  0.1447  0.1449  0.1461
#               2731 06   0.1374  0.1416  0.1415  0.1414  0.1452  0.1448  0.1436
#               2049 05   0.1387  0.1440  0.1430  0.1406  0.1466  0.1464  0.1431
#               2048 04   0.1368  0.1471  0.1487  0.1414  0.1478  0.1527  0.1512
#               1365 03   0.1399  0.1435  0.1416  0.1416  0.1521  0.1526  0.1502
#               0682 02   0.1389  0.1391  0.1361  0.1454  0.1669  0.1518  0.1424
#               0000 01   0.1329  0.1374  0.1362  0.1554  0.1791  0.1504  0.1356
#
# CENTRAL PERT PSF:
#      01  -0.0477
#
# CENTRAL PSFFILE_INP: ./../psfs/STDPSF_WFC3UV_F606W.fits
#                 0000    0682    1365    2048    2731    3413    4096
#                   01      02      03      04      05      06      07
#     4096 08   0.1704  0.1823  0.1891  0.1908  0.1932  0.1946  0.1940
#     3413 07   0.1788  0.1854  0.1883  0.1903  0.1924  0.1926  0.1938
#     2731 06   0.1851  0.1893  0.1892  0.1891  0.1929  0.1924  0.1913
#     2049 05   0.1864  0.1917  0.1907  0.1883  0.1942  0.1940  0.1907
#     2048 04   0.1845  0.1948  0.1963  0.1891  0.1955  0.2004  0.1989
#     1365 03   0.1876  0.1912  0.1892  0.1892  0.1998  0.2003  0.1979
#     0682 02   0.1866  0.1868  0.1838  0.1931  0.2145  0.1995  0.1900
#     0000 01   0.1806  0.1851  0.1839  0.2031  0.2268  0.1980  0.1833
#
# CENTRAL  DIFFERENCE
#                 0000    0682    1365    2048    2731    3413    4096
#                   01      02      03      04      05      06      07
#     4096 08   0.0477  0.0477  0.0477  0.0477  0.0477  0.0477  0.0477
#     3413 07   0.0477  0.0477  0.0477  0.0477  0.0477  0.0477  0.0477
#     2731 06   0.0477  0.0477  0.0477  0.0477  0.0477  0.0477  0.0477
#     2049 05   0.0477  0.0477  0.0477  0.0477  0.0477  0.0477  0.0477
#     2048 04   0.0477  0.0477  0.0477  0.0477  0.0477  0.0477  0.0477
#     1365 03   0.0477  0.0477  0.0477  0.0477  0.0477  0.0477  0.0477
#     0682 02   0.0477  0.0477  0.0477  0.0477  0.0477  0.0477  0.0477
#     0000 01   0.0477  0.0477  0.0477  0.0477  0.0477  0.0477  0.0477
#
#
#=================================
# FRAME INFO
#
#      WCSMODE: AUTO
#     TARGNAME: NGC-5139-HSSB
#     RA_TARG :   2.013959166667E+02
#     DEC_TARG:  -4.756673611111E+01
#        INSTu:     8
#     PLATESCL:   40.000 mas/pix
#
#        INST1:       2048.00     -0.00000627 -0.00000909       201.5364273  13:26:08.74
#            2:       1026.00     -0.00000909  0.00000627       -47.6336630 -47:38:01.18       39.773
#        -----     ----------     ----------- -----------      ------------ ------------     ---------
#        FRAME         CRPIX         CD_1        CD_2           RADEC(DEG)  RADEC(SEXIG)     (mas/pix)
#        -----     ----------     ----------- -----------      ------------ ------------     ---------
#        DEST1:          0.00     -0.00001111  0.00000000       201.3959167  13:25:35.02       40.000
#            2:          0.00      0.00000000  0.00001111       -47.5667361 -47:34:00.25
#
#
#=======================================
# FINDING STATISTICS
#
#  WHY    NPIX      %PIX   EXPLANATION
#  --- --------  -------   -------------
#   1    32688    0.195%   ..1..not on chip....
#   2 14898577   88.802%   ..2..not loc max....
#   3  1550369    9.241%   ..3..h < hmax.......
#   4   206222    1.229%   ..4..flux too low...
#   5        0    0.000%   ..5..below mask thr.
#   6        0    0.000%   ..6..out of bounds..
#   7       14    0.000%   ..7..loflag issues..
#   8        0    0.000%   ..8..saturated......
#   9       16    0.000%   ..9..not contig sat.
#  10        0    0.000%   .10..not loc sat max
#  11        0    0.000%   .11..sat weirdness..
#  12     5107    0.030%   .12..pk but not qsel
#  13        0    0.000%   .13..pk too peaky...
#  14        5    0.000%   .14..satd CR........
#  15     2345    0.014%   .15..good unsat.....
#  16       53    0.000%   .16..good satd......
#
#
#=======================================
# LUMINOSITY FUNCTION EXTRACTED
#
#    MAG   LFe    CUMe      LFe/s CUMe/s
#-------- -----  ------   ------- ------
# LF -18      2      2          0      0
# LF -17      5      7          0      0
# LF -16     20     27          0      0
# LF -15     15     42          0      0
# LF -14     48     90          0      0
# LF -13    169    259          1      1
# LF -12    442    701          6      7
# LF -11    623   1324         20     27
# LF -10    760   2084         13     40
# LF  -9    314   2398         47     87
# LF  -8      0   2398        158    245
# LF  -7      0   2398        434    679
# LF  -6      0   2398        612   1291
# LF  -5      0   2398        757   2048
# LF  -4      0   2398        350   2398
# LF  -3      0   2398          0   2398
# LF  -2      0   2398          0   2398
# LF  -1      0   2398          0   2398
#-------- -----  ------   ------- ------
#
#
#=====================================
# BOUNDARY INFO   INST=8 Ks=2
#
# -----------     ------------- -------------     ------------- -------------     ------------- -------------     ------------- -------------
#     SYS CHP         P1a           P1b               P2a           P2b               P3a           P3b               P4a           P4b
# -----------     ------------- -------------     ------------- -------------     ------------- -------------     ------------- -------------
# BDRY_xy_K1:         1.0000000  2052.0000000      4095.0000000  2052.0000000      4095.0000000  4095.0000000         1.0000000  4095.0000000
# BDRY_uv_K1:         1.0000000  2052.0000000      4095.0000000  2052.0000000      4095.0000000  4095.0000000         1.0000000  4095.0000000
# BDRY_rd_K1:       201.5416367   -47.6086108       201.5035159   -47.6458366       201.4759539   -47.6330080       201.5140850   -47.5957914
# BDRY_UV_K1:         1.0000000  2052.0000000      4095.0000000  2052.0000000      4095.0000000  4095.0000000         1.0000000  4095.0000000
# -----------     ------------- -------------     ------------- -------------     ------------- -------------     ------------- -------------
# BDRY_xy_K2:         1.0000000     1.0000000      4095.0000000     1.0000000      4095.0000000  2045.0000000         1.0000000  2045.0000000
# BDRY_uv_K2:         1.0000000     1.0000000      4095.0000000     1.0000000      4095.0000000  2045.0000000         1.0000000  2045.0000000
# BDRY_rd_K2:       201.5693099   -47.6214738       201.5311994   -47.6587088       201.5036103   -47.6458805       201.5417311   -47.6086547
# BDRY_UV_K2:         1.0000000     1.0000000      4095.0000000     1.0000000      4095.0000000  2045.0000000         1.0000000  2045.0000000
# -----------     ------------- -------------     ------------- -------------     ------------- -------------     ------------- -------------
#
#
#===================================================
#  FILEOUT: id8048dyq_flc.xympqks                                                           
#---------------------------------------------------
# (01)  x -- raw detector x pos    c002-c010    F004
# (02)  y -- raw detector y pos    c012-c020    F005
# (03)  m -- instl mag             c022-c028    F006
# (04)  p -- peak pixel value      c030-c037    F018
# (05)  q -- quality of fit        c039-c043    F019
# (06)  k -- chip number           c045-c045    F023
# (07)  s -- sky value             c047-c052    F025
#---------------------------------------------------
#
#  (01)      (02)     (03)     (04)   (05)     (07)   
#
#....x.... ....y.... ...m... ....p... ..q.. k ...s..  
#
 1067.8075    6.5211 -11.120  3065.97 0.027 2   8.40
 1792.0000    7.0000 -12.165 73431.69 0.000 2  41.15
 3260.1648    7.6983  -9.345   713.62 0.098 2   6.63
  839.1743   10.9112 -11.392  4825.74 0.034 2   9.59
 2359.5049   11.7570 -10.082  1249.06 0.064 2   9.22
 2650.9023   13.4334 -10.132  1450.06 0.089 2   7.99
 1114.4979   21.7820  -9.396   684.39 0.068 2   9.17
 1442.3458   23.4154  -9.544   701.54 0.050 2   5.68
 1683.9125   22.9407 -12.567 13823.05 0.055 2  15.14
 3162.6309   23.4531  -9.784   909.93 0.078 2   6.22
 3664.4138   22.7587  -9.328   630.19 0.089 2   6.47
 3718.6541   22.6459  -9.110   466.62 0.069 2   8.11
 2993.7886   30.2822 -14.142 58912.38 0.082 2  28.57
 3932.6174   29.6719  -9.354   596.45 0.067 2   6.63
 1286.7318   32.5184 -13.268 21134.07 0.025 2  16.40
  929.7750   33.3364 -12.665 14191.36 0.023 2  16.39
  283.2610   34.3475 -15.719 81631.52 0.000 2  91.85
 1930.7445   35.2943 -13.590 32926.30 0.059 2  17.37
 2659.9521   37.1936  -9.669  1113.06 0.095 2  10.09
 2558.8406   38.1591 -10.536  2423.97 0.076 2   7.30
 2970.6057   40.6908 -12.007  7224.42 0.076 2  14.01
 2045.5344   42.1026 -11.121  3211.62 0.068 2   9.01
 3484.7568   42.5182  -9.588   759.31 0.071 2   6.64
  803.3416   45.0407 -10.597  2198.10 0.052 2   8.25
    9.5816   49.7326  -9.170   544.57 0.103 2   8.77
  299.6803   50.2827  -9.933  1105.55 0.076 2  28.33
 3167.0493   50.1544  -9.371   786.29 0.101 2  10.26
 2520.5583   55.7285  -9.553   733.06 0.090 2   7.68
 4084.3809   56.2040 -12.116  8105.03 0.049 2  10.14
 3069.5076   57.5872 -11.223  3238.44 0.076 2   8.49
  559.0107   60.8442 -11.202  4244.49 0.032 2   8.21
 1241.7439   60.5701 -14.294 55280.03 0.024 2  29.08
 2746.3770   62.7185 -11.548  5237.85 0.098 2  10.10
 2048.2078   64.3127 -10.552  2103.34 0.057 2   8.14
  911.0856   64.5218 -13.009 18216.32 0.027 2  13.52
 2226.2483   66.6400 -11.013  3136.67 0.080 2   8.75
 2278.8196   68.4253  -9.066   529.79 0.096 2   8.13
 2352.3013   67.8959 -11.847  7525.43 0.058 2  12.71
 1693.3359   69.2268 -12.229  8732.70 0.054 2  14.01
  731.9330   73.6137 -12.530 12454.20 0.033 2  15.09
 3857.4780   75.0849 -10.030  1099.73 0.082 2   8.07
 2401.2654   76.5415 -12.263  9664.07 0.057 2  19.47
 3182.5984   76.8092  -9.694   885.43 0.070 2   9.06
 1935.3882   78.7972 -12.513 12274.81 0.044 2  14.73
  189.6957   79.7831 -10.044  1286.03 0.050 2   6.69
  742.2222   80.3242 -10.653  2243.11 0.043 2  11.66
 2487.3540   81.0318 -11.637  6056.53 0.066 2  13.31
 3505.4492   81.3437 -10.326  1383.07 0.062 2   7.21
 4019.5957   81.9271 -10.557  1882.22 0.054 2   6.18
 3800.6499   83.6324 -10.815  2242.11 0.062 2  10.37
  871.1400   85.5986 -11.903  6891.13 0.033 2  10.34
 3430.0198   85.7979  -9.497   887.37 0.087 2   8.91
 2670.8262   88.6180 -11.617  5560.97 0.082 2   9.62
 2943.6748   88.6558 -10.273  1534.22 0.073 2   8.94
 1688.8781   89.8657  -9.992  1321.42 0.064 2   7.17
  670.8488   90.6366 -10.413  1778.65 0.049 2   8.75
 3061.4167   91.0083 -11.622  5590.30 0.071 2  10.00
  619.8751   98.3048 -10.149  1465.71 0.043 2   6.67
 3907.4324   98.6193 -10.892  2439.37 0.035 2   9.97
 2426.8169  101.7339 -15.733 76731.82 0.000 2  94.75
 3233.2380  102.2269 -14.858 75947.09 0.000 2  50.68
 2152.8879  105.6312 -11.325  3971.63 0.097 2   9.82
  682.3413  109.3972  -9.440   643.55 0.060 2   6.59
 1194.1151  109.9628  -9.710   985.25 0.074 2   8.75
  415.9431  113.0623 -11.235  4489.67 0.034 2   6.42
   68.5283  113.9474 -10.635  2152.33 0.058 2   7.00
 3396.7351  116.5142  -9.709   817.92 0.084 2   7.67
 3797.3552  116.9765 -10.499  1952.44 0.056 2   9.11
 2954.3394  118.2348  -9.362   683.40 0.101 2   7.11
 3108.5310  119.4540  -9.637   772.00 0.077 2   7.80
  572.3209  122.5854 -11.818  6161.10 0.033 2  10.86
 1350.5374  125.2268  -9.607   797.49 0.043 2  12.38
 2143.9548  126.7712  -9.513   839.52 0.086 2   8.75
 2206.8853  129.9330  -9.519   942.70 0.077 2   5.89
  902.6615  132.4417 -10.422  1659.48 0.037 2   6.29
 1212.1024  131.6538  -9.904  1122.57 0.043 2   8.23
 1349.3988  133.5822 -11.581  4613.73 0.037 2   9.91
  228.7346  135.8976 -10.256  1652.68 0.057 2   8.08
 1187.3088  135.9943 -13.123 21676.56 0.031 2  15.37
 1948.1056  140.2881 -10.447  1864.47 0.064 2   9.02
 1912.0338  140.7112  -9.406   759.47 0.086 2   8.36
 1551.2122  144.3999  -9.972  1048.75 0.065 2   6.94
 3884.1687  145.6343 -12.610 13411.09 0.044 2  15.47
 1310.6208  147.0934 -12.606 13022.71 0.037 2  15.64
 3751.9915  149.0889  -9.805  1019.47 0.141 2  25.14
  655.3980  152.0036  -9.454   768.12 0.057 2   9.15
  363.1161  153.4320 -11.088  3179.18 0.052 2   7.38
 3742.6990  154.6557 -14.302 57739.27 0.053 2  27.17
 3266.3333  156.2618 -10.719  2304.16 0.062 2  10.07
 3708.9880  156.6456 -12.449 11875.58 0.053 2  16.00
  135.3687  163.3233  -9.271   590.10 0.093 2   8.15
 1425.6746  163.6937 -10.762  2245.29 0.041 2   8.18
 3851.8657  163.9637 -10.722  2610.95 0.064 2  10.71
 1504.2113  165.9324 -10.848  2731.86 0.066 2   9.38
 2626.2380  169.1403 -10.282  1853.81 0.079 2   6.39
 2675.8894  169.0611 -10.634  2652.17 0.079 2   9.75
 3881.7839  171.0711 -10.655  2386.64 0.058 2  12.43
 3938.3423  170.6030 -10.846  2473.33 0.059 2   9.33
 1095.0858  172.2416  -9.707   995.28 0.050 2   7.00
 3246.7622  172.1510 -10.005  1373.78 0.085 2   8.35
 3240.9907  173.1114  -9.686   991.28 0.140 2   7.72
 1628.1681  173.6068  -9.670   899.86 0.063 2   8.43
 1217.3167  175.4140  -9.989  1005.98 0.057 2   9.72
 2699.2544  174.6684 -10.764  2644.73 0.084 2  10.21
 3182.6765  175.4949  -9.967  1080.15 0.085 2   8.31
 3900.8311  177.5668 -11.510  4458.41 0.048 2  12.28
 1084.9044  183.4716  -9.236   607.08 0.064 2   6.16
 2358.8950  183.3935 -10.753  2561.22 0.065 2   7.94
  828.3407  184.8362  -9.750   934.40 0.060 2   7.33
  589.2551  188.0097 -10.777  2729.09 0.042 2   8.61
  899.2825  188.2882 -11.255  3754.96 0.031 2   9.79
  125.7579  191.1982 -11.548  5531.39 0.047 2   8.11
 2630.0801  191.1320  -9.627  1091.67 0.084 2   7.52
 1191.0620  192.3313 -11.475  4719.67 0.032 2   9.70
  324.5115  193.5321 -11.613  4605.56 0.039 2  11.09
  753.6115  195.1657  -9.114   552.53 0.083 2   8.26
 3603.0232  204.7519 -10.120  1537.95 0.045 2   8.24
 2275.4822  205.8062 -13.604 27512.92 0.194 2  20.15
  826.7451  208.7744 -10.660  2218.57 0.036 2   8.35
 3437.7402  214.6220 -13.015 18068.01 0.057 2  17.07
  619.1627  217.5730  -9.454   706.19 0.048 2   6.85
 1953.3003  220.0890 -12.537 12717.29 0.054 2  15.05
 3268.1655  223.7289  -9.370   766.30 0.063 2   7.27
 1934.8931  225.7081 -11.122  3468.47 0.060 2   9.40
 2753.1719  225.9554 -10.427  2197.15 0.087 2   7.44
 3154.2566  225.5876 -12.163  8838.14 0.063 2  12.77
 2180.4243  226.9303 -10.758  2394.87 0.067 2   8.62
 2659.2527  227.5480 -12.080  7850.31 0.088 2  11.54
  541.5319  229.7992 -11.538  4643.38 0.030 2   9.05
 1685.2266  230.5158 -11.019  2746.71 0.060 2   9.08
  874.7527  233.2537 -10.661  2258.46 0.036 2   6.09
 1441.0006  234.1619  -9.805  1055.80 0.055 2   8.95
  339.5216  235.6348 -12.321  9091.46 0.034 2  11.47
 3033.7957  237.3506 -11.409  4560.92 0.081 2  10.91
 3647.7632  237.4853 -11.847  5926.56 0.065 2   9.70
   48.8119  237.6589  -9.322   666.20 0.097 2   8.67
 3045.8909  239.9434 -10.687  2730.41 0.068 2   8.10
  972.8528  240.5599 -10.942  2657.75 0.033 2   8.26
  444.3915  242.3671 -14.106 46620.75 0.030 2  29.63
  452.7344  242.4242 -11.524  4714.78 0.039 2  26.23
 2026.5536  244.5092 -12.414  9103.12 0.050 2  12.47
 3931.9512  246.7696 -10.614  2280.38 0.058 2   7.29
  540.0707  249.8153 -10.397  1972.78 0.038 2   9.91
 1094.1614  251.1905 -10.937  2981.28 0.046 2  10.61
 3793.9087  251.1278 -11.238  4148.08 0.062 2  11.30
 2286.6196  252.7808 -10.609  2067.76 0.063 2  11.80
 4018.5386  253.9842 -10.948  2743.29 0.045 2   9.71
 1805.4620  258.0609 -10.470  1754.80 0.048 2   8.57
 2137.7495  261.4580 -10.960  2661.21 0.079 2   9.64
  690.1123  263.3231 -10.380  1710.71 0.047 2   7.76
 3813.2434  267.2082 -11.249  3821.13 0.056 2  10.33
  810.6705  268.3876  -9.828   996.16 0.038 2   7.49
 2848.9092  267.8637 -10.251  1885.56 0.072 2   7.97
 1937.0619  269.1304  -9.542   916.08 0.080 2   8.38
  471.4679  270.6762 -12.069  7478.96 0.028 2  12.43
 1019.9185  271.4146 -11.911  6807.53 0.034 2   8.29
 1785.3235  271.6227 -12.134  7773.25 0.063 2  13.92
 2333.4741  271.7681 -10.316  1503.74 0.077 2   7.24
 1480.7209  273.2125 -10.578  2064.48 0.051 2   9.99
 1580.0093  272.8976 -12.821 17317.58 0.051 2 119.40
 2476.8188  272.7405 -12.778 17351.74 0.059 2  14.08
 2924.1467  276.0854 -12.452 13590.89 0.071 2  13.42
 1383.9489  276.5255 -10.970  2634.17 0.044 2   9.54
 3854.5203  276.5040 -10.690  1798.81 0.045 2   7.89
 1188.2030  278.0059 -10.765  2612.37 0.046 2   8.61
  206.4958  280.6822 -10.309  1527.58 0.068 2   9.36
  373.5561  281.0403  -9.242   615.36 0.082 2   9.10
  328.4052  284.7025 -10.684  2177.22 0.047 2   6.66
 3430.3274  288.3825  -9.584   754.19 0.068 2   4.87
  755.6099  291.1403 -13.051 20003.39 0.025 2  15.43
 3359.5068  290.7532 -11.133  3203.66 0.074 2   5.91
 1008.7993  291.7775  -9.611   886.99 0.043 2   8.11
 1201.9705  292.4543  -9.826   955.41 0.058 2  14.10
 1651.5676  297.4546  -9.621   709.02 0.078 2  20.91
  185.9614  298.4964 -11.539  4788.40 0.056 2   9.68
  903.3717  297.7070 -11.297  3974.63 0.031 2   9.00
  292.7058  299.7132 -11.158  3526.64 0.040 2  10.52
  106.7667  300.6095  -9.241   577.09 0.103 2   9.71
 1573.6160  301.3188 -18.017 86800.97 0.000 2 665.24
 2240.9480  300.7093 -12.534 13271.68 0.064 2  14.49
 2941.8887  305.2646 -11.967  8263.74 0.075 2   9.72
 2389.1968  305.4748 -12.891 16158.81 0.057 2  16.81
  511.4837  307.0495 -11.043  3069.26 0.038 2   8.64
 2255.8291  306.6037 -10.911  2760.56 0.054 2  11.83
   20.7500  308.0122 -11.471  5261.33 0.048 2   9.13
 1883.4189  310.4400 -11.831  5132.03 0.057 2  11.61
 2026.4547  311.6013 -11.281  3437.89 0.064 2   8.09
 1998.6675  313.4967 -11.928  6187.86 0.058 2  12.28
 1190.6274  314.1358 -11.652  5416.07 0.037 2  15.06
  252.8524  315.3736 -12.638 14174.40 0.040 2  17.30
 2901.2637  314.5299 -11.946  6904.16 0.071 2  11.57
  674.7839  316.3204 -10.826  2639.51 0.039 2   6.19
 3847.1895  317.1832 -10.456  1916.78 0.064 2   8.10
 1176.6356  323.0790 -12.192  9104.72 0.032 2  15.19
 1680.3936  323.1615 -13.376 24380.76 0.051 2  21.91
  359.2335  329.4083 -11.475  4509.65 0.040 2   9.73
 1588.3470  329.8217 -11.500  4565.81 0.069 2  60.31
 1478.9215  332.5783 -10.937  2570.04 0.056 2  14.72
 1785.7249  332.6483 -11.384  3875.88 0.060 2   9.15
 1055.5830  334.1935  -9.466   754.14 0.059 2   6.81
 2700.2559  333.9782 -10.042  1479.21 0.091 2   9.48
 3375.7222  335.1053  -9.894  1253.28 0.068 2   8.87
 3238.8271  335.5590 -13.676 33401.93 0.060 2  19.99
  931.1118  337.4879  -9.846   969.15 0.053 2   9.72
  297.5453  342.6146 -12.179  7640.72 0.028 2  10.16
  139.3576  345.3106  -9.515   771.39 0.075 2   8.87
  257.3302  345.4210 -10.310  1419.61 0.047 2   9.81
  938.7711  345.7129 -10.669  2222.68 0.029 2   8.42
 1380.2859  349.2089 -12.797 14815.76 0.051 2  15.73
  359.2512  351.0209 -10.181  1608.37 0.060 2   9.31
  314.0153  358.9176  -9.767  1134.21 0.074 2  10.18
  461.9971  358.9440 -11.796  7216.48 0.027 2   8.35
 2085.1394  359.4441 -10.535  1781.06 0.076 2   6.52
 2498.6555  361.9074 -10.545  2173.09 0.067 2   7.57
 2643.7751  367.8218 -11.493  5331.59 0.080 2  10.78
 1500.4154  369.5739 -11.775  5224.23 0.051 2  14.53
 2802.1292  371.7448 -10.257  1734.32 0.089 2   9.46
 3920.7717  372.9022  -9.669  1000.91 0.074 2   6.75
  605.9606  375.0508 -10.702  2658.72 0.046 2  11.73
 1765.2148  378.8052 -11.604  5464.02 0.059 2   8.21
  614.5662  381.2184 -11.205  3569.86 0.026 2  10.80
  981.7966  383.6286 -11.635  5147.85 0.032 2   9.11
 3187.2271  383.6572 -10.133  1415.09 0.066 2   8.86
 2557.1145  384.6623  -9.490   831.61 0.074 2   5.74
 3712.6697  384.9255  -9.787  1004.07 0.082 2   8.28
 3123.3318  387.6665  -9.269   636.25 0.076 2   6.37
 1431.5605  389.8446  -9.780   914.65 0.057 2   8.89
 1201.6151  390.8542 -10.288  1479.70 0.042 2   5.99
 1374.3154  393.0239 -10.591  2045.34 0.063 2   7.84
  305.4630  393.9442 -13.474 29141.48 0.028 2  15.78
  218.3293  394.7925  -9.964  1311.20 0.063 2  10.00
 2703.8440  395.0645 -11.770  7164.35 0.087 2  11.14
 1113.1595  395.8778  -9.375   736.03 0.072 2   7.45
 2257.9832  397.0784 -11.112  3884.55 0.072 2   9.02
   89.2669  401.2018  -9.461   809.85 0.083 2   4.28
 1611.0198  402.3180 -10.252  1554.10 0.057 2  14.17
  582.1157  404.2259  -9.436   762.29 0.084 2   8.09
 1404.7822  406.1149 -10.315  1717.06 0.059 2   7.54
 3409.2749  407.0816  -9.352   689.53 0.086 2   6.18
 2731.5769  411.1545 -10.031  1301.73 0.081 2   5.95
 1033.6207  413.1244 -11.638  5297.98 0.036 2   9.00
  190.0242  414.7811  -9.211   710.48 0.080 2   6.31
  226.8112  419.9149 -11.079  3595.74 0.038 2   8.75
 1984.0521  419.8959 -10.280  1728.03 0.066 2   5.83
 2012.7527  420.5984  -9.925  1031.53 0.059 2  12.87
  271.4224  426.7933 -10.656  2189.88 0.051 2   7.61
  363.5016  426.6944 -11.652  5045.00 0.030 2  10.62
 1806.0786  427.4168 -11.412  4081.59 0.054 2  12.35
 3770.0564  429.6594  -9.406   759.13 0.060 2  10.91
  816.5427  430.8998 -13.917 40621.04 0.032 2  19.44
 2873.3342  433.0269 -12.448 12505.45 0.065 2  11.31
 3304.8313  434.8001 -11.074  3423.32 0.063 2   5.82
  478.8024  436.3226 -12.940 18455.04 0.029 2  16.27
 1068.3230  435.7461 -10.661  2193.45 0.047 2   7.84
 2296.6816  438.8978 -11.384  4607.05 0.059 2  11.85
 3754.5537  439.1252 -10.575  1872.51 0.059 2  10.94
  311.6759  444.8647 -11.584  5408.17 0.033 2  11.24
 1100.5333  445.5283  -9.858   855.26 0.045 2  12.53
 2181.8108  447.1802 -12.403 12157.46 0.054 2  13.65
  361.4049  447.5953  -9.226   564.96 0.058 2   8.02
 1599.3751  450.9455  -9.547   784.35 0.061 2   8.08
 2702.9385  452.4026  -9.304   663.15 0.100 2   7.64
 1050.0078  452.5320 -11.824  5848.46 0.038 2  10.58
 2202.4890  453.1943  -9.749   916.89 0.066 2  11.70
 1365.7014  459.4166 -11.497  4210.80 0.049 2  10.89
  305.5321  462.0505 -11.156  3490.25 0.028 2  12.46
 2610.9377  462.9974 -11.203  4383.52 0.068 2   6.44
 2993.5901  466.8574 -12.275  9622.10 0.074 2  11.48
  746.3652  468.0284  -9.991  1224.30 0.052 2   8.85
 3728.2146  471.0907 -13.671 37296.41 0.065 2  18.21
 1931.6683  471.5638 -12.499  9861.84 0.052 2  13.89
 2201.2024  472.1770 -11.115  3640.12 0.048 2   9.74
  609.5579  477.8816 -11.962  6969.26 0.021 2   9.74
 1998.8147  478.3000  -9.354   680.44 0.071 2   9.37
  656.6263  478.9905  -9.826  1044.38 0.056 2   7.09
 1387.5760  478.9267 -10.883  2579.91 0.052 2   9.18
 2535.7014  479.1232 -11.482  5133.65 0.079 2   9.06
  437.5010  482.3286 -10.318  1516.98 0.060 2   6.80
 1735.9464  482.0657  -9.477   808.38 0.072 2   7.61
 2560.8948  482.0428 -11.959  8992.41 0.067 2  10.27
   48.4197  484.8359 -11.184  3778.94 0.047 2   8.25
 1497.0101  484.8433 -12.542 13259.77 0.046 2  14.23
 1470.4788  487.1702 -11.039  2678.76 0.052 2  11.08
 2433.6948  487.3573 -11.428  4554.69 0.067 2   7.96
 3072.6082  486.7838 -11.017  2948.51 0.067 2   8.29
 1676.6833  494.9175 -11.293  3774.19 0.066 2   8.37
  158.5871  497.4296  -9.739   884.61 0.060 2   8.25
  988.1436  498.3389 -10.317  1564.70 0.051 2   7.20
 2087.3821  500.7520 -15.091 74254.70 0.000 2  58.87
 1685.9817  505.8929 -10.355  1784.06 0.072 2  10.96
 1948.8829  508.9250 -11.204  3965.03 0.057 2  10.02
 1701.3259  511.8073  -9.354   636.94 0.071 2   7.98
 3260.0518  513.0150 -11.612  6226.68 0.069 2  10.41
 3466.3247  513.2055 -10.341  1670.27 0.065 2   9.45
  149.5704  515.6090 -10.684  1995.64 0.046 2   8.41
 1962.3982  520.8402 -10.914  2757.12 0.057 2  12.81
 1445.9611  521.8569 -10.649  2295.21 0.064 2   8.62
 1471.6061  521.7722 -10.175  1301.59 0.060 2   8.64
 3301.0627  523.0107 -10.493  2178.41 0.083 2   8.03
 1594.0319  523.6392  -9.456   710.91 0.075 2   8.12
 2584.0283  525.2731 -10.496  2113.89 0.074 2   9.59
 2618.1704  529.3097 -11.552  5224.02 0.073 2   8.52
  601.3353  529.9657 -10.941  2970.70 0.041 2  11.06
  961.5710  529.6808 -10.757  2094.65 0.052 2   7.49
 3256.4043  530.7616  -9.721   970.77 0.071 2   8.64
  584.8489  531.8863 -10.182  1578.97 0.042 2   9.13
  819.6659  533.8519  -9.715   949.71 0.065 2   8.62
  316.7875  537.6283 -10.684  2197.97 0.041 2   7.91
 1043.8713  538.6309 -12.063  7428.20 0.053 2  11.91
  816.1210  544.0828 -10.623  2317.58 0.052 2  11.99
 2303.5989  546.7058 -10.142  1248.44 0.063 2   7.65
  452.4424  547.7773 -10.057  1261.17 0.041 2   8.89
 3206.4121  549.9899 -11.967  7711.32 0.049 2   9.13
  696.7488  552.7359 -11.676  5659.24 0.027 2   9.25
 1480.2628  556.0048  -9.645   932.28 0.054 2   9.69
 2067.7795  556.2878 -10.071  1285.81 0.078 2  10.12
 1121.4969  556.5496  -9.390   597.47 0.056 2   6.66
  635.9155  559.3667  -9.847  1120.64 0.063 2   9.68
 1233.2269  560.4731 -11.230  3154.48 0.059 2   9.95
 1329.8890  561.2711 -12.489 11887.50 0.061 2  14.54
 2724.9712  566.5176  -9.564   772.80 0.107 2   8.04
 1998.3175  568.2167 -11.601  4973.30 0.061 2   8.12
 3384.8616  567.8781 -10.305  1836.07 0.066 2  10.40
  288.9204  569.2286  -9.562   958.34 0.076 2   7.09
 3892.5793  571.7807 -12.882 15228.77 0.050 2  15.58
  933.8209  579.9524  -9.955  1259.61 0.059 2   9.35
 2483.7634  581.5724 -11.184  3346.76 0.065 2   8.91
 3158.9543  581.6990 -10.989  3348.06 0.064 2   9.09
 2163.9363  583.3488 -11.212  3764.80 0.062 2  10.26
 2797.1758  583.0620 -12.755 17448.70 0.075 2  15.31
 2103.7803  584.8883 -10.409  1945.02 0.053 2   9.61
 3758.3979  584.8281 -11.112  3298.18 0.056 2  10.07
 3267.6926  589.3284 -10.745  2327.57 0.080 2  10.70
  583.2891  591.3306  -9.719   890.21 0.060 2   5.58
 3682.0146  590.7277 -10.249  1632.78 0.066 2   7.66
 1660.3234  592.4025 -10.162  1208.12 0.060 2  10.29
 2463.0425  592.2479 -11.404  4941.09 0.071 2   9.40
 1915.8521  594.2233 -10.038  1304.00 0.081 2   8.08
 3536.6860  596.0665  -9.434   752.57 0.099 2   8.87
  677.2104  598.3633 -10.476  1781.14 0.036 2  10.36
  856.0377  598.0248 -12.465 13001.31 0.029 2  13.56
 3167.0427  598.0948  -9.673  1070.93 0.076 2   9.42
 3803.6421  598.4630 -11.907  5972.35 0.065 2  10.77
 3911.4512  597.7556 -11.842  6329.46 0.047 2  12.05
 1318.7340  600.7641  -9.169   558.10 0.070 2  14.44
  928.8272  603.5786 -10.538  1799.23 0.039 2   9.68
 1657.3901  605.1140  -9.438   695.75 0.066 2   7.04
 1179.2742  609.3381 -11.298  3688.89 0.041 2   9.85
 1536.5197  610.4562 -10.467  1461.58 0.069 2  12.99
 2670.6245  612.0108 -12.106  8853.36 0.076 2  11.77
 3531.3860  613.9219 -11.080  3231.21 0.065 2   9.79
 2743.0281  615.7653 -10.170  1651.80 0.075 2   7.93
   23.4279  616.7682 -10.370  1772.27 0.060 2   7.99
 2703.2866  619.4216 -11.139  3146.18 0.076 2   9.28
  913.4583  619.6306 -11.806  5476.56 0.038 2   7.89
 1763.8551  620.2605  -9.617   831.87 0.075 2   7.99
 1313.7236  621.0731 -13.607 33437.04 0.049 2  25.19
 3017.1331  620.5338  -9.788   980.03 0.079 2   8.66
 1533.4863  622.2203 -12.788 13354.83 0.062 2  19.13
 3941.6667  622.5589 -13.072 16775.04 0.054 2  17.04
  392.3014  624.4693  -9.319   540.74 0.082 2   5.67
   69.5544  630.3129 -12.178  8863.94 0.046 2  10.31
 1845.7520  629.9927 -10.315  1697.49 0.071 2  13.51
 1323.4709  630.7386  -9.359   574.76 0.098 2  13.75
 3763.8882  632.1703 -11.175  3854.68 0.067 2   9.12
 1859.7975  633.1094 -13.852 42379.55 0.055 2  24.18
 3326.1294  635.1045 -12.880 18910.58 0.067 2  14.87
 3453.6980  635.6478  -9.385   631.59 0.082 2   5.92
 3719.4858  640.3138  -9.482   663.87 0.070 2   9.10
  626.9175  641.0198 -11.698  6335.87 0.039 2  10.12
 1101.0851  646.9012  -9.896  1187.27 0.071 2   8.60
  521.2008  649.2875 -12.600 13369.13 0.027 2  15.88
 2413.4028  648.7619 -10.243  1524.75 0.080 2   9.23
 1280.7883  650.0215 -11.281  4059.23 0.052 2  13.16
 2206.0474  651.1150  -9.438   794.58 0.079 2   5.23
  837.0900  652.5110  -9.755   862.60 0.070 2   7.51
 2668.2681  654.5578 -10.150  1355.23 0.078 2   8.81
  118.0170  661.4368  -9.553   755.42 0.070 2   9.98
  172.9809  661.4929 -10.837  2477.85 0.042 2   7.60
 3169.1331  665.8194 -12.986 20907.35 0.075 2  15.81
 3281.4714  667.3451 -10.703  1939.38 0.080 2   8.66
  387.8056  667.6288 -10.336  1653.48 0.041 2   7.90
 1359.4517  669.2330  -9.152   502.30 0.063 2   9.22
 1619.9899  671.4550 -10.769  2274.15 0.055 2   8.09
  179.8723  672.4626  -9.841  1073.42 0.070 2   9.42
 1513.8910  672.0345 -15.188 74423.59 0.000 2  63.74
  717.2238  676.7465 -10.468  1895.91 0.053 2  10.65
 3055.4333  676.8506 -12.584 13101.94 0.061 2  14.98
  412.8229  678.5242 -11.147  3232.18 0.031 2  10.66
 3666.5667  679.8282  -9.917   999.88 0.063 2   9.63
 3680.4810  680.8394  -9.839   999.16 0.069 2   9.37
  485.0939  682.2865  -9.901  1157.16 0.042 2   8.96
 3742.1643  682.4111 -11.783  5848.84 0.066 2  11.34
 1241.2603  695.1200 -11.834  6561.66 0.038 2   9.65
 1264.6365  706.3067  -9.306   631.99 0.076 2   9.13
  449.6283  707.4202 -11.823  5923.50 0.025 2   9.42
 1135.3811  707.5056 -12.537 10389.43 0.041 2  14.17
  835.6836  709.7318 -12.127  7922.11 0.041 2   9.52
 2656.0437  709.7866  -9.907  1202.95 0.089 2   7.55
 3684.2019  710.3940  -9.742   929.42 0.056 2  10.32
 2983.7202  711.4146 -10.295  1514.97 0.066 2   8.40
  925.7177  716.7764 -11.855  6433.52 0.041 2  10.38
  245.2146  718.5175 -10.970  2763.88 0.036 2   8.74
  103.6344  720.2679 -12.131  9084.00 0.036 2  10.76
 3262.8733  719.6422 -12.154  8783.30 0.062 2  11.46
 2892.5491  721.0319 -10.110  1291.28 0.081 2   7.05
 1128.2341  723.4061 -10.682  2048.38 0.051 2  11.24
 1691.1141  722.9679 -11.715  6249.31 0.048 2   8.99
 1223.9585  726.4286 -11.193  3269.93 0.047 2   8.98
 3437.2456  726.5417 -10.044  1158.28 0.069 2   9.26
 4006.1709  726.9355 -10.497  2120.12 0.068 2   6.02
 1535.5110  731.1147  -9.823   925.34 0.076 2  12.12
 3672.6160  737.1162 -10.577  1947.29 0.068 2   7.78
 3026.3936  739.7875  -9.510   796.47 0.081 2   5.66
 4046.4402  740.0515 -11.224  3695.48 0.041 2   9.89
  137.6873  743.9194 -12.170  9572.73 0.029 2   9.70
   81.5438  745.3593 -10.223  1397.31 0.051 2   8.00
  849.3826  745.9169 -11.066  3137.87 0.034 2   8.45
 2373.6213  746.6531 -10.738  2021.39 0.074 2   7.95
 2427.8262  746.6864 -12.955 18683.81 0.058 2  17.32
 1163.7217  748.2473  -9.129   567.54 0.067 2   9.97
 1564.1611  750.7122 -11.878  6745.68 0.056 2  13.63
 2934.5974  752.4152 -12.379  9881.39 0.064 2  12.48
 3958.5872  753.1030 -12.613 13072.17 0.044 2  13.86
 3680.4626  755.2605 -10.756  2029.94 0.075 2   8.23
 1394.2632  756.6155 -11.170  3175.75 0.060 2  10.35
 3828.1895  757.0260 -11.834  7253.41 0.051 2  10.04
  427.6971  757.6825 -10.144  1330.38 0.041 2   8.31
 1188.7153  766.4179 -10.273  1385.57 0.062 2  10.31
 3779.7561  768.8800  -9.324   652.94 0.098 2   6.66
 3103.4280  770.4017 -10.141  1091.40 0.100 2   8.95
 3089.2759  770.5637  -9.155   554.59 0.078 2   9.36
 2375.9041  776.1584 -11.275  4485.42 0.047 2   9.25
  256.4813  778.9134  -9.744   955.61 0.077 2   8.35
 1959.6842  783.8313 -10.019  1251.35 0.043 2   9.26
 2331.8997  783.9860 -11.046  3580.46 0.068 2  10.08
 1778.3898  785.0305  -9.990  1107.53 0.069 2  10.80
 1554.7520  786.6982 -10.934  2778.16 0.052 2  14.61
  303.2865  788.0764 -12.475 12647.27 0.027 2  15.31
 2817.5696  789.0728 -12.018  7733.64 0.074 2  13.36
 1933.6482  792.3680  -9.370   636.71 0.086 2   9.33
 2658.2793  792.3935 -10.539  1853.46 0.084 2   5.33
 2541.5969  793.7095 -15.260 73223.94 0.000 2  68.17
  199.6304  795.4647 -10.632  1946.02 0.044 2   7.07
  271.1062  795.2836 -10.912  2939.61 0.033 2   9.90
 2907.6631  794.8818 -13.474 30078.01 0.068 2  18.23
 1766.3058  802.5688 -11.080  2844.14 0.062 2   9.77
 4030.7510  803.4924 -10.387  1611.47 0.063 2   8.02
 1332.0858  803.6254 -10.872  2579.56 0.055 2   8.30
 2828.3357  808.3297 -12.211  8563.69 0.073 2  17.26
  320.7106  815.2430  -9.720  1000.77 0.063 2   7.64
 3277.9971  814.7138  -9.974  1265.73 0.085 2  10.27
  886.3058  818.5618  -9.311   602.50 0.048 2   9.84
 2825.0088  820.6406 -12.677 14905.37 0.076 2  15.16
  421.2881  821.9137 -11.931  7630.63 0.024 2  10.55
 2488.3921  822.3709 -11.434  3766.10 0.070 2  12.45
 2939.8657  821.6255  -9.740   933.56 0.087 2   9.89
 3977.2920  823.0356 -10.657  2374.06 0.054 2   6.59
 2226.6702  824.5022  -9.714   832.17 0.079 2   8.64
 2389.5942  824.9125  -9.271   619.66 0.111 2   8.21
 3321.0154  824.5547 -10.594  1978.02 0.088 2   9.01
 1244.1482  827.1227 -11.305  4207.57 0.053 2   8.69
 3179.6284  827.7790 -11.871  6328.74 0.066 2  12.11
 2888.2341  829.8330 -12.244 10375.83 0.068 2  10.72
 2550.9126  831.2452 -11.939  7983.22 0.074 2  17.76
 3489.4614  831.2415 -11.481  4089.65 0.063 2  10.70
 1568.1080  833.3892 -12.229  8780.39 0.051 2  14.47
  959.5712  834.9051 -11.764  5681.67 0.045 2  10.56
 1314.6957  836.0926 -12.340 10400.70 0.048 2  11.11
  758.5675  836.6678  -9.585   736.89 0.071 2   9.39
 3609.4668  839.5114  -9.987  1020.97 0.048 2   9.23
 3502.9353  840.6672 -11.153  3494.08 0.068 2  10.62
  452.3497  847.3429 -12.148  7836.23 0.033 2  14.46
  855.2111  847.6396 -10.929  2731.27 0.040 2   8.95
 2367.5654  847.9849 -13.459 27637.81 0.062 2  22.19
  344.2559  849.6356  -9.500   752.50 0.072 2   6.94
  913.4318  850.7266 -13.364 24118.54 0.034 2  20.26
  828.3225  851.9974  -9.833  1076.22 0.068 2   7.60
  141.7570  857.3010 -11.172  3723.90 0.030 2   7.76
 3813.4087  856.8394 -10.588  2162.09 0.050 2   9.72
 3295.8591  857.5817 -10.566  1887.73 0.080 2  12.13
  921.3555  858.8005 -11.545  4895.01 0.044 2  16.95
 3268.5774  859.5748 -12.497  9494.77 0.068 2  14.95
  742.0291  861.0265 -11.684  6132.77 0.051 2   9.69
   76.2424  863.0081 -10.004  1392.96 0.070 2   7.70
 4032.3518  862.9418  -9.632   945.27 0.076 2   8.15
 3822.4595  866.3259  -9.132   504.07 0.093 2   8.14
 1362.4265  867.0660  -9.512   687.79 0.080 2   8.23
 2966.0532  868.1437 -10.950  2920.90 0.245 2   9.10
  624.4859  869.9230  -9.972  1138.64 0.040 2   7.92
  495.3421  871.8663 -10.909  2781.41 0.050 2  18.61
 1531.7166  874.4752 -10.540  1740.59 0.050 2   8.19
  828.0824  874.9912 -10.953  3171.38 0.056 2   8.34
 3861.4387  876.6945  -9.662   849.04 0.067 2   9.56
 3279.3643  878.2158 -13.067 19090.86 0.069 2  16.85
 3022.3430  879.2999  -9.827  1008.69 0.080 2   7.84
 2262.8755  881.3867 -11.274  3852.26 0.069 2  10.70
  345.1891  887.2432  -9.707  1022.73 0.070 2   8.81
 2091.3447  890.6822 -10.481  1806.27 0.057 2   7.26
  280.6234  891.5893 -11.317  3510.35 0.029 2  10.20
 1980.6356  892.0154  -9.914  1073.83 0.085 2   8.87
  746.3520  893.8142 -10.456  1793.62 0.052 2   9.51
  109.2306  894.9442 -10.707  2604.08 0.037 2  10.05
 2616.0833  896.1048  -9.634   964.32 0.099 2   8.29
 2888.1680  896.3774  -9.583   857.38 0.074 2   7.96
 3082.0061  895.6588 -11.927  7247.87 0.076 2  11.75
 3967.7856  898.4498 -10.720  2143.38 0.054 2   5.60
  524.2930  900.7437 -15.934 78444.24 0.000 2 111.18
   63.6987  904.0621 -11.450  5021.40 0.044 2  10.83
 3628.5471  904.0545  -9.297   602.37 0.090 2   5.83
  723.2053  906.5892 -10.741  2271.78 0.042 2   8.39
 3231.4773  908.8642 -12.989 17398.78 0.075 2  17.94
 4019.3193  908.4754 -11.215  3269.75 0.037 2   7.75
 3375.6375  909.5848 -11.240  3023.00 0.077 2   8.72
  378.8739  910.6373  -9.995  1140.81 0.050 2  10.88
 1673.4586  910.9993 -11.068  2952.96 0.055 2   8.56
  872.8251  913.8698 -10.463  1985.31 0.050 2  10.98
 1010.4678  915.7371 -10.920  2518.51 0.040 2   9.17
 3919.3589  917.4630 -11.286  3353.75 0.048 2   8.65
  404.0396  920.9807 -10.900  3063.14 0.046 2  10.18
 3117.8223  921.1164 -10.333  1728.71 0.099 2   9.51
  550.6699  926.2592 -10.563  2046.48 0.049 2  30.39
 1861.1514  925.5485 -11.925  6573.64 0.048 2   9.96
  320.5239  929.6428 -11.915  6210.77 0.024 2   9.77
 1277.3861  931.3107 -10.272  1372.02 0.054 2   9.04
 1714.5210  931.1877  -9.641   860.98 0.074 2   9.46
 1702.3145  935.2706 -10.638  1964.84 0.060 2   7.79
  672.4346  936.2783 -10.033  1081.49 0.050 2   9.60
  873.9152  936.1506 -11.963  7885.36 0.051 2  11.64
  492.1645  936.6226 -11.228  3782.80 0.040 2  16.47
  562.5058  936.9977 -12.602 12267.77 0.032 2  21.60
 1165.4705  937.1940  -9.309   601.42 0.101 2   7.63
 2456.7461  938.3100 -12.648 14013.79 0.060 2  16.93
  748.6302  939.3118 -12.597 12741.03 0.027 2  16.44
 2123.5300  940.5043 -11.813  4997.21 0.066 2   8.69
 2260.1841  941.6740  -9.636   886.82 0.075 2   7.41
 2067.7051  942.8391  -9.531   815.95 0.062 2   8.70
 2633.8525  943.1899 -10.272  1724.53 0.078 2  17.70
 1142.2959  947.0172 -10.287  1651.23 0.040 2   8.21
   66.0825  951.7704  -9.289   722.96 0.104 2   4.84
 4014.7803  955.9424 -11.741  6419.11 0.055 2   8.55
 1939.2261  957.4230 -11.742  5176.52 0.059 2  11.77
 2990.4460  957.5444 -11.241  3255.81 0.079 2  12.11
 3112.1035  958.7281 -12.476 12414.67 0.071 2  14.49
 1263.8320  959.5925 -10.662  1722.65 0.355 2  12.47
 1180.6639  961.2230 -10.071  1314.07 0.046 2   7.93
 3792.9783  962.0941  -9.672  1060.23 0.076 2   8.98
 3124.7390  963.3141  -9.595   845.05 0.095 2  10.44
 3307.4854  963.3447 -12.934 14753.72 0.071 2  14.26
  863.6804  963.6090 -11.054  2793.34 0.043 2  11.05
 1823.0759  964.6883 -11.263  3910.72 0.056 2   9.53
 2500.7048  966.3286  -9.917  1127.37 0.071 2  10.30
 1531.5576  970.2947 -11.408  3981.35 0.040 2  11.23
 3994.8032  969.7811  -9.265   650.38 0.072 2   9.25
 2845.1870  970.8300 -10.348  1857.35 0.089 2   6.05
   25.5847  974.9766 -10.489  1910.81 0.041 2   5.81
 2239.2217  975.2097 -10.158  1468.37 0.060 2   8.00
 2628.3760  976.3633 -14.429 65289.17 0.000 2  52.77
 2064.2871  977.0484  -9.477   806.77 0.065 2   6.11
 2785.8962  977.3911 -10.072  1330.07 0.077 2   8.83
 2649.8137  978.0192 -10.663  2448.31 0.082 2  20.67
 3017.2283  977.6260 -14.177 54778.78 0.077 2  26.51
  723.1106  981.3820  -9.691   854.14 0.062 2   9.10
 2945.1362  984.1847 -10.861  2781.94 0.081 2   8.82
  936.7666  987.6962 -10.494  1792.36 0.056 2  10.99
 1837.6760  987.7623 -11.218  3394.16 0.054 2   9.27
  805.0900  991.2178 -11.055  3262.48 0.050 2  15.91
 1270.9777  991.2867 -11.595  5278.53 0.057 2  13.00
 2501.6865  990.6930 -11.446  4315.55 0.069 2  16.39
 2623.1641  992.5775 -14.062 48648.03 0.075 2  50.11
 2570.5669  995.4654 -16.281 77012.23 0.000 2 155.32
 3451.2490  994.9116 -11.250  4053.25 0.080 2  11.12
 2118.8989  995.7716 -12.162  9016.37 0.053 2  12.17
  112.9102  998.0724 -11.548  5925.49 0.037 2  10.44
 1077.9785  998.7095 -11.633  5496.13 0.053 2  16.63
 2996.7380  999.0731 -11.073  3449.96 0.088 2  12.90
 1573.4840 1000.2543  -9.583   726.08 0.075 2  15.37
 1067.3239 1003.4366 -12.483  9728.91 0.045 2  16.27
  101.3594 1003.8323  -9.771   981.04 0.077 2  10.78
 1804.5662 1004.3771 -11.949  6269.45 0.059 2  10.36
 2792.4070 1003.4328 -11.228  3055.33 0.076 2  10.34
 3620.9583 1003.6732 -10.396  1807.05 0.070 2   7.69
 1813.0123 1005.0471 -11.205  4049.61 0.056 2  13.65
 3662.7893 1006.0774  -9.330   717.84 0.088 2   8.86
 1094.8452 1008.6556 -11.960  7094.38 0.038 2  14.55
 1409.9369 1008.9243 -10.066  1372.20 0.047 2   7.86
 3241.6582 1011.3608 -10.160  1316.29 0.077 2   8.24
 1610.8302 1014.9534  -9.781  1016.20 0.064 2   9.65
 1057.8684 1016.4247 -11.436  4215.71 0.042 2  12.51
  680.0953 1020.3141 -10.755  2442.18 0.052 2  10.94
  751.7795 1022.5432 -11.026  2765.85 0.048 2  21.49
 2254.7817 1023.5258 -11.080  2724.11 0.081 2   8.24
 1149.3562 1024.8610 -10.591  1984.73 0.089 2   8.73
 2550.7083 1025.7062 -10.177  1281.02 0.160 2  25.14
   34.0763 1029.4054  -9.399   753.58 0.098 2   9.96
  782.2330 1028.5038 -16.068 76267.56 0.000 2 120.83
 1966.5088 1028.8756  -9.994  1071.55 0.080 2   6.99
 2547.2559 1029.5023 -10.387  1524.07 0.112 2  23.75
 1682.4873 1032.2069 -10.230  1315.71 0.061 2   7.32
  279.5037 1036.8531 -10.831  2473.86 0.031 2   9.73
   55.2911 1037.9498 -10.298  1724.97 0.049 2   8.08
 1537.1281 1039.3958 -15.979 76986.06 0.000 2 113.70
  992.9502 1045.5277  -9.401   647.58 0.079 2   8.89
  393.0080 1047.1255 -11.377  4863.65 0.038 2  10.17
  359.2828 1051.7438 -12.706 15272.63 0.028 2  16.44
 1802.7596 1053.2346 -11.279  3821.38 0.078 2  13.33
 1267.4020 1054.9451 -10.633  2130.18 0.057 2   9.05
 1944.3601 1055.9841 -11.799  6105.24 0.055 2  10.13
 1512.8339 1059.8092 -10.075  1376.49 0.066 2  25.96
  511.9140 1061.2648  -9.500   821.31 0.076 2   8.32
 2036.8833 1062.9510 -11.864  6960.69 0.064 2  10.28
  425.7358 1065.4231 -13.313 24557.62 0.030 2  16.80
   67.0202 1066.2964  -9.890  1168.75 0.048 2   7.41
 2400.3843 1065.9121 -10.553  1996.60 0.077 2   7.39
 3124.2268 1068.8143  -9.210   613.69 0.080 2   4.98
  591.6475 1070.2509 -10.316  1658.51 0.049 2  12.64
 3735.4688 1069.5747  -9.451   653.12 0.070 2   8.24
 1834.6412 1071.7283 -11.458  4082.81 0.050 2  10.27
 4056.5740 1073.5647 -11.549  4148.65 0.045 2  11.35
 1000.1356 1076.0232 -11.209  3944.19 0.036 2   8.66
  354.4415 1077.3488  -9.487   692.99 0.077 2  10.05
 1044.6243 1077.5925 -10.887  2287.23 0.041 2   9.22
 1235.3020 1078.2335 -10.940  2625.86 0.059 2   9.79
 2264.9290 1079.8336 -11.099  3443.61 0.077 2   9.14
 3490.1016 1080.7827 -10.858  2900.93 0.060 2   8.60
  627.8715 1081.5815 -11.512  4659.22 0.031 2  13.70
  895.0699 1082.4181 -10.610  2032.62 0.041 2  10.61
  163.0872 1088.8253  -9.573   923.24 0.064 2   8.08
  141.3811 1090.8009 -10.726  2407.46 0.040 2   7.51
 2071.3708 1091.2501 -12.155  7854.62 0.076 2  11.33
  831.3825 1094.5105  -9.478   631.65 0.063 2   8.09
 3413.1538 1094.8265 -11.602  5670.51 0.074 2  11.69
 3342.8833 1095.9916 -11.511  5359.94 0.068 2  12.32
  336.0409 1097.4790  -9.852   997.01 0.075 2   9.32
 1637.9696 1097.6562 -13.955 43394.25 0.055 2  22.48
  365.5544 1101.2024 -10.813  2570.84 0.055 2  10.64
 1320.8848 1102.9036 -12.464 12226.78 0.058 2  15.25
 3388.3401 1102.9901 -11.007  3060.83 0.077 2   8.45
  789.5497 1107.0096 -11.068  3136.34 0.042 2  11.04
  641.2685 1107.5406 -11.269  3469.46 0.044 2   9.93
 3006.6060 1109.1602 -10.622  2062.08 0.072 2   8.64
 3676.4768 1109.8716 -10.816  2457.26 0.053 2  12.26
 3686.5940 1110.2078  -9.933  1023.35 0.090 2   8.43
  980.2488 1113.6116  -9.501   789.88 0.078 2   6.89
 2605.6736 1114.1824 -10.302  1625.21 0.081 2   8.76
 2302.9048 1115.1635 -10.309  1669.28 0.109 2   8.74
  687.1797 1122.2018  -9.196   653.30 0.077 2   7.58
 2355.7075 1121.6608 -10.794  2251.42 0.066 2   8.22
 3924.9336 1121.9508  -9.605   966.02 0.104 2   4.90
  948.2534 1123.2106 -10.550  1976.04 0.048 2   9.75
 3010.6667 1129.8433 -11.565  4859.59 0.083 2   8.28
 3363.9683 1131.7047 -11.768  6305.89 0.066 2   9.80
  177.3942 1133.6667 -10.530  1928.84 0.035 2   9.27
 1734.5692 1133.7079  -9.661   768.17 0.070 2   7.06
 2726.2900 1134.4728 -10.013  1033.40 0.095 2  10.27
 2249.4827 1136.2057 -10.446  1633.59 0.065 2   9.02
 2264.3284 1137.2426 -10.066  1245.73 0.067 2   9.46
 2757.5706 1141.0415 -10.987  2869.73 0.079 2  10.89
  538.8527 1144.4480 -10.720  2252.10 0.044 2   6.91
  144.6568 1145.8550  -9.468   761.49 0.085 2   9.46
  849.5612 1146.4089 -10.415  1541.61 0.066 2   8.52
 1636.3512 1145.7878 -12.730 14196.89 0.054 2  15.24
 2785.9158 1148.4634  -9.842   980.42 0.096 2   8.14
  262.7981 1150.0710 -12.897 19645.33 0.027 2  15.02
  515.1779 1149.8973  -9.694   987.19 0.069 2   5.45
 2719.7954 1151.4866 -12.984 17118.54 0.075 2  17.70
  676.5868 1153.5480 -10.673  1894.25 0.046 2  17.62
 1970.3126 1154.2953 -12.760 13917.38 0.052 2  15.15
 2342.3762 1157.1593 -11.962  6902.96 0.066 2  12.09
 3397.1230 1162.8485 -10.138  1482.33 0.084 2  10.16
 3667.7864 1164.3738 -10.157  1346.31 0.083 2   8.91
    8.9177 1167.0525 -10.063  1511.96 0.053 2   8.79
  667.4866 1169.1471 -10.856  2453.75 0.039 2  35.15
  827.7796 1174.3102  -9.668   903.36 0.087 2   9.83
 3243.6018 1174.2368 -11.040  2927.65 0.080 2   8.22
 3735.8022 1176.6765 -11.379  3959.67 0.076 2  10.31
   24.8035 1177.7853  -9.176   654.27 0.088 2   8.76
 2750.5505 1178.5269  -9.131   504.91 0.125 2   9.19
 2094.3213 1179.8719 -11.624  5233.30 0.067 2  12.54
 3392.7595 1180.5837  -9.520   708.22 0.108 2  10.05
 3590.4023 1180.7345 -13.611 31473.58 0.071 2  18.87
 1283.5350 1185.3213 -11.080  2846.75 0.061 2   9.15
 1980.1519 1187.4469 -10.171  1215.38 0.079 2  11.63
 3213.8403 1186.7729 -10.054  1302.47 0.082 2   9.02
 3880.1978 1187.3695  -9.669   865.43 0.083 2   5.92
 1414.1584 1193.2714 -13.511 29958.21 0.055 2  17.33
  665.1900 1194.3140 -16.254 78236.29 0.000 2 167.38
 2654.7109 1193.5156 -11.658  3584.05 0.256 2   9.71
  937.4974 1201.3673  -8.957   812.10 0.406 2   9.40
 2859.8398 1202.4244 -10.940  2771.47 0.075 2  10.28
 3951.1375 1203.6768 -10.851  2634.09 0.071 2   5.61
 1764.8517 1205.2640  -9.678   799.74 0.218 2   7.48
 2138.0862 1204.9785 -13.248 24819.77 0.070 2  21.85
 3986.9441 1208.9381 -10.702  2665.46 0.055 2   7.54
 1368.8612 1210.1855 -12.428 12129.38 0.044 2  15.62
 4021.9045 1209.8877 -10.101  1531.71 0.067 2   7.62
 3108.2104 1210.5887 -12.072  7720.13 0.067 2  12.30
 1144.4386 1214.3350 -11.016  2535.29 0.062 2   8.73
 1523.0201 1213.5957  -9.306   583.07 0.071 2   8.22
 1840.5367 1215.3053  -9.350   630.58 0.090 2   6.54
  429.5997 1215.9368 -10.064  1278.40 0.045 2   9.78
 3071.1255 1217.8123  -9.785  1106.90 0.098 2  10.94
 2930.5564 1218.6501 -10.498  1605.60 0.073 2   8.08
  339.6935 1219.7581 -10.344  1687.06 0.050 2   7.58
 2800.5591 1221.9395 -14.537 67642.25 0.000 2  39.19
 1243.1895 1223.9410 -10.404  1829.45 0.053 2   8.03
  517.1693 1225.4872  -9.510   744.77 0.063 2   9.29
  283.6050 1230.1088 -10.901  2804.18 0.041 2   7.13
  559.0831 1230.3451 -11.587  5361.22 0.034 2  10.70
 1270.1737 1232.6222 -11.949  7128.52 0.040 2  10.66
 1470.5375 1233.1969 -12.200  8066.68 0.092 2  12.35
 3854.2146 1238.2572 -10.028  1271.89 0.082 2   6.44
 1413.6537 1239.2506  -9.601   860.94 0.058 2  13.11
 1642.0016 1239.2904 -11.428  4421.46 0.069 2   8.80
 1957.5480 1241.5725 -11.685  4480.67 0.060 2  10.48
  842.6764 1249.1174 -10.532  2074.86 0.046 2   6.89
 1223.7758 1249.5140 -10.051  1144.96 0.061 2   8.47
 2103.3508 1248.4631 -12.254  7714.22 0.059 2  14.69
  221.3455 1249.7755  -9.650   887.23 0.093 2   6.82
 1419.2878 1250.7968 -10.079  1309.57 0.068 2  13.40
 3914.8828 1251.2345 -13.218 24445.62 0.070 2  17.64
  316.0878 1254.2849  -9.378   768.15 0.086 2   8.87
   29.0767 1257.1997 -10.516  2170.18 0.034 2  10.89
  166.5118 1258.1270  -9.306   672.41 0.102 2   7.17
  450.6922 1258.8977 -11.775  6573.88 0.025 2  10.42
 2134.9873 1259.0383 -11.772  6523.47 0.069 2  11.92
 2351.9939 1259.4482  -9.923  1050.09 0.091 2   8.27
  606.5997 1265.7832 -12.152  8200.05 0.035 2  15.74
 2623.2876 1266.7645 -12.146  8761.57 0.072 2  12.49
  852.5865 1269.2500  -9.885  1065.79 0.050 2   8.52
  888.3732 1271.4091  -9.656   743.22 0.063 2   7.46
  412.5316 1273.9244 -10.872  2525.54 0.044 2   9.14
 2396.1455 1273.6533 -10.848  2536.06 0.088 2   8.82
 1330.6620 1276.2094 -10.486  1873.45 0.051 2   8.53
 1102.5629 1277.4902 -10.176  1249.25 0.064 2   8.96
 2516.0391 1280.1697 -11.854  7217.95 0.077 2  11.08
 2063.1064 1280.6743 -11.212  3401.75 0.122 2  18.66
 1807.7119 1283.2421 -10.788  2458.98 0.061 2   8.08
 2413.5496 1283.4440  -9.529   743.60 0.078 2  10.67
 3815.7661 1283.1014 -10.064  1364.38 0.084 2   7.96
 4019.5178 1283.5668 -10.800  2061.43 0.051 2   9.01
 2722.4275 1284.7563 -12.267  9165.13 0.077 2  13.15
 2882.5693 1285.1653  -9.531   765.79 0.083 2   6.79
 2431.0879 1285.6252  -9.715   858.84 0.089 2   8.37
 3769.5432 1289.4606 -11.008  2536.10 0.059 2   7.60
 2195.1550 1290.3256 -10.711  2183.60 0.084 2  10.26
 2753.1348 1291.4390 -10.929  2596.12 0.074 2   8.70
  345.3366 1291.7500 -10.077  1280.14 0.058 2   8.73
 3390.2175 1292.8052 -11.786  6474.35 0.071 2  11.84
  536.0426 1293.9241  -9.979  1368.65 0.076 2  12.82
 3525.5708 1294.0308 -11.100  3150.84 0.061 2   9.51
  147.8051 1295.2830 -11.580  5490.38 0.031 2  11.05
 1184.7592 1300.8740 -12.158  9126.42 0.041 2  11.40
 3382.7910 1300.6277 -11.399  4022.84 0.072 2  11.30
  551.4668 1301.9565 -13.350 25163.81 0.026 2  19.40
  309.9540 1303.0630  -9.573  1025.19 0.077 2   8.68
   83.0533 1306.5093 -10.646  2068.77 0.042 2  13.10
 2621.4504 1309.3097  -9.310   558.87 0.110 2   6.82
  458.3389 1309.7566  -9.970  1177.30 0.066 2   9.05
 1972.0714 1310.6322 -10.136  1273.93 0.079 2   9.08
 2088.8230 1311.5317 -15.957 75174.37 0.000 2 116.38
 2963.0432 1311.5967 -10.435  1758.59 0.094 2   8.27
 2507.7627 1315.3943  -9.373   659.94 0.085 2   9.36
 1339.0813 1316.7271  -9.561   846.06 0.095 2   6.47
 3364.4963 1318.3069 -12.306  8716.83 0.064 2  12.93
  150.4195 1319.7852 -10.730  2342.16 0.039 2   9.90
 2023.8324 1319.7808 -12.882 16992.90 0.052 2  15.89
 1264.3988 1320.6088  -9.131   523.89 0.096 2   8.19
  486.4495 1321.9363  -9.456   669.94 0.079 2   8.45
   75.4062 1325.0146 -11.287  3919.37 0.041 2  22.70
  343.1092 1328.9004 -10.327  1833.72 0.055 2   9.30
 1903.8022 1329.6162  -9.359   612.12 0.097 2   7.11
 3132.9399 1330.8037 -11.614  5851.15 0.065 2  10.17
 2655.8716 1334.8191 -10.518  2031.43 0.106 2   6.80
   24.0288 1338.9686  -9.641   969.51 0.067 2  17.07
 1047.4835 1341.4055  -9.548   707.30 0.071 2   5.90
 1240.1669 1340.7488 -11.519  4955.05 0.062 2  11.41
 3138.0706 1341.3180  -9.468   817.42 0.092 2  13.44
 2341.1858 1342.1450  -9.733  1002.74 0.112 2   6.32
 1577.3433 1342.9856 -13.405 26799.01 0.055 2  18.78
 1304.1541 1344.1384 -10.414  1889.12 0.053 2   9.40
 2375.7251 1345.9978 -10.629  2222.79 0.092 2   7.54
   67.0850 1348.8578 -15.452 75120.80 0.000 2  84.57
  149.1153 1350.7316 -11.370  4551.01 0.077 2   9.75
 3250.4897 1358.7043 -10.018  1119.95 0.071 2   6.18
 2027.3428 1361.9092 -11.506  4595.19 0.071 2  13.49
 3356.8115 1374.3967  -9.340   680.87 0.097 2   8.98
 1471.1034 1376.5502 -11.714  5526.71 0.050 2   9.62
  949.3425 1378.6653  -9.675   888.23 0.049 2   7.57
  229.1015 1383.1074 -12.622 15404.50 0.031 2  12.47
 4070.1042 1382.5712 -14.160 53352.57 0.060 2  23.67
 1562.6295 1383.6138 -11.879  5525.49 0.056 2  15.29
 1911.3206 1384.2759 -11.566  4727.03 0.064 2  11.85
 3018.7483 1386.8074 -13.005 19014.93 0.072 2  14.76
  965.5404 1391.7256 -11.383  3764.96 0.038 2  11.84
 3583.1750 1392.1934 -11.034  3309.19 0.082 2   8.51
   20.9728 1394.1676 -12.594 14647.61 0.047 2  17.74
  529.2825 1394.1321 -11.623  5624.94 0.033 2   8.95
 2194.1133 1394.6855 -10.072  1304.20 0.077 2   7.48
 1534.1173 1396.8887  -9.822  1125.87 0.097 2  13.26
 2340.8665 1399.0127 -11.469  4885.86 0.072 2  11.96
 3386.1116 1398.6956 -11.259  3968.58 0.076 2   9.45
 2227.9058 1399.9310  -9.464   808.76 0.078 2  11.43
  816.2015 1401.6001  -9.704   905.77 0.067 2   9.44
 1512.5587 1408.0265 -12.775 14763.08 0.049 2  15.40
  831.0471 1409.0293 -11.813  7374.14 0.042 2  11.92
 1110.3171 1408.8606 -13.454 29133.89 0.046 2  18.03
 2266.7566 1409.0786 -12.041  8084.11 0.075 2  12.52
 3186.4390 1408.8436  -9.911  1089.37 0.073 2   9.18
 1182.1344 1414.1963 -12.606 13766.26 0.048 2  12.76
 3397.7888 1416.2610  -9.556   881.69 0.077 2   7.78
  538.5293 1416.5536  -9.746   787.95 0.063 2   6.65
 2041.5961 1417.7909  -9.842   909.44 0.089 2   8.29
 4084.4258 1417.5604 -11.027  2776.77 0.057 2  11.08
  179.4781 1422.6169 -12.526 10946.93 0.030 2  11.82
  489.1641 1423.2645  -9.978  1281.71 0.051 2  12.07
  876.6266 1423.2509 -11.067  3194.51 0.033 2   9.68
  408.0977 1431.2966 -10.292  1640.65 0.046 2   8.45
  570.2131 1434.1068 -10.879  2883.19 0.049 2   8.61
  760.8665 1434.4689 -11.847  6280.59 0.041 2   9.68
  488.9682 1435.2024 -11.939  8171.53 0.033 2  14.73
 1572.2095 1435.5797 -14.293 56449.31 0.064 2  27.09
  711.6323 1437.0839  -9.535   899.64 0.057 2   7.10
 2301.7288 1440.0320 -11.038  3235.37 0.077 2  11.89
 3209.8508 1441.0583 -13.447 30885.18 0.065 2  20.57
 2770.3762 1442.9149  -9.674   907.45 0.076 2   8.48
 1710.9811 1443.8104  -9.519   783.72 0.104 2   5.73
 3027.1562 1443.6107  -9.369   642.55 0.122 2  10.66
 1245.5396 1445.1609 -10.699  2182.47 0.055 2   8.80
  227.2964 1446.2609 -10.803  2508.47 0.035 2   8.86
 3013.8984 1447.2905  -9.603   954.74 0.091 2   8.01
 2081.4077 1453.1367 -10.210  1300.33 0.078 2   7.91
 1821.5629 1454.2533 -11.246  3386.21 0.075 2   9.70
 2256.8857 1454.6875 -12.998 18291.77 0.065 2  17.50
 2646.1755 1458.6746 -10.409  1794.77 0.083 2   9.49
 1328.0917 1460.3380  -9.319   648.39 0.088 2   7.01
 2975.9153 1460.5048  -9.565   764.62 0.111 2   7.88
 1437.9685 1460.5708 -10.175  1340.81 0.067 2   7.93
 3755.4351 1461.4005 -12.181  7204.45 0.062 2  10.72
 3671.3516 1461.7450 -11.654  5143.48 0.116 2   9.92
  509.9831 1465.2463 -11.411  4736.55 0.045 2  11.35
 3797.3596 1466.1827 -11.400  4209.43 0.058 2   8.50
 2574.9695 1467.9667 -12.336 11204.58 0.075 2  10.22
 1293.7584 1469.5365  -9.515   703.42 0.078 2   6.49
 2230.5618 1470.0249 -10.843  2409.73 0.088 2  10.03
 2515.6287 1471.0538 -13.183 21456.45 0.077 2  18.78
 2791.8308 1472.1621 -10.233  1586.76 0.093 2   9.63
 2837.0225 1477.1394 -11.819  7124.46 0.069 2  11.03
 3061.7712 1476.9830 -10.169  1445.40 0.102 2   8.01
 3877.8972 1479.1652 -10.162  1556.19 0.075 2   6.51
 2669.1062 1481.4698  -9.789   900.59 0.097 2   7.80
  527.4326 1483.7073  -9.786   960.95 0.052 2   9.86
 2796.4016 1485.8612 -11.401  4122.12 0.080 2   9.65
 2268.8433 1486.5989 -12.027  6844.59 0.075 2  13.40
  566.2279 1489.3282 -12.401 11004.88 0.033 2  15.99
  588.1442 1488.5603 -12.029  7568.58 0.036 2  15.90
 1624.3533 1489.0939  -9.411   711.86 0.094 2  11.32
 2440.0566 1494.0323  -9.919  1174.58 0.103 2  12.82
 1570.7994 1496.0162 -10.789  2530.51 0.083 2   9.84
  631.2408 1497.0176  -9.592   939.57 0.067 2   9.63
  707.6719 1500.0836  -9.667   897.96 0.083 2   9.28
 1120.4995 1500.9064 -11.272  3548.25 0.055 2   9.88
 2869.7876 1500.8096  -9.227   665.66 0.103 2   9.00
  681.7958 1502.4756 -10.935  2681.32 0.037 2   9.30
 2438.8623 1502.5869 -10.974  2651.05 0.079 2  10.65
 1456.5377 1506.2538 -11.689  5135.58 0.062 2  10.79
 1046.8915 1509.8541 -12.041  8723.51 0.043 2  14.64
 2525.6333 1510.3558  -9.524   815.84 0.100 2  11.19
 1086.1877 1514.8385  -9.517   790.73 0.124 2   7.38
   91.2247 1515.5806 -10.813  2629.75 0.050 2  11.07
 2162.2095 1520.4781 -10.114  1146.98 0.087 2   7.03
 3285.5046 1520.7994 -11.547  4550.79 0.063 2  11.02
 1367.8135 1524.0153  -9.854  1112.60 0.083 2   9.20
  404.3049 1526.4418 -11.543  4316.30 0.040 2   9.19
 1069.9608 1528.0129 -10.859  2947.61 0.050 2   8.78
 3248.1389 1529.8900  -9.858  1181.81 0.093 2   9.21
 3929.3904 1531.8131  -9.591   842.55 0.081 2   7.21
 1331.7507 1536.9995 -11.141  3645.54 0.063 2   7.80
 3692.2180 1538.2848 -15.941 74528.12 0.000 2 116.65
   95.4801 1538.9297 -11.876  6567.75 0.029 2   9.37
  482.9904 1541.5961 -10.504  1944.85 0.036 2   6.83
 3152.3315 1542.1615 -11.927  7000.68 0.075 2   8.93
   67.7189 1543.1610  -9.671  1001.79 0.087 2   8.79
 1663.8413 1543.9269 -10.166  1505.22 0.063 2   7.48
  609.0280 1546.1692  -9.591   958.09 0.085 2   7.74
 1508.6276 1546.5902 -10.893  2242.48 0.059 2  12.57
 1858.6571 1547.2809 -12.199  8677.45 0.081 2  13.97
 3703.9473 1549.3196 -10.037  1212.82 0.134 2  44.45
 1700.1967 1551.6244 -11.523  4669.42 0.053 2   8.89
 1133.2731 1554.1344 -10.064  1260.37 0.071 2   8.62
 3035.5828 1553.8656 -10.480  1698.37 0.082 2   8.04
   71.7150 1557.4456 -10.555  1658.93 0.100 2  10.33
  790.3328 1556.8351 -12.878 17708.80 0.030 2  14.56
 3818.6428 1556.7021 -11.109  2967.43 0.066 2   8.98
 4057.9885 1559.3092 -11.103  3548.37 0.058 2   9.29
 1457.7109 1560.3356 -10.913  2675.46 0.056 2  13.35
 2298.7141 1560.6980 -10.953  2691.11 0.065 2  10.94
 1471.7360 1562.6031 -10.202  1297.49 0.055 2   9.43
 3604.6345 1563.4885 -11.052  2665.12 0.071 2  10.96
 3662.9001 1565.2438  -9.447   786.20 0.123 2  19.52
 1888.1384 1566.1907  -9.674   958.22 0.074 2  13.82
 2842.6018 1567.9896 -12.976 17478.48 0.068 2  15.17
 1531.0752 1568.8162  -9.474   756.82 0.101 2  13.16
 1817.8938 1568.7954 -12.024  7900.86 0.062 2  14.30
 1484.3267 1570.2159 -10.052  1205.53 0.079 2   9.56
 1170.5094 1572.2883 -11.621  5028.16 0.044 2   9.26
 2127.6765 1572.4095  -9.064   546.21 0.124 2   8.56
 1872.7943 1573.3684 -10.788  2297.98 0.084 2  10.48
  173.7779 1574.7678 -10.500  2004.67 0.033 2   9.80
 3109.7217 1575.4773 -11.417  3914.85 0.085 2   7.93
 1901.3391 1579.1130 -10.364  1640.09 0.067 2  13.01
 1808.0476 1587.8599 -11.837  6688.41 0.061 2  11.41
 1579.9366 1589.0057 -11.243  3961.51 0.080 2  12.72
 2408.7197 1590.6907 -10.657  1970.94 0.088 2   9.03
  626.1388 1593.5225  -9.607   794.24 0.082 2   9.74
  591.0548 1595.1987 -11.838  7331.79 0.040 2  10.76
 2864.3708 1595.1796 -11.396  4077.93 0.076 2  11.31
 3809.2439 1598.3425  -9.669   865.58 0.067 2   8.50
   44.3679 1600.1876  -9.119   557.42 0.107 2   9.47
 1522.8068 1599.7563 -13.510 29976.35 0.056 2  23.29
  299.3675 1601.5275 -10.473  1655.74 0.036 2   9.64
  574.6891 1603.6597 -10.763  2291.07 0.048 2   9.91
  272.3176 1609.0146 -10.570  2203.15 0.045 2  10.73
 2330.7739 1614.0048  -9.959  1243.12 0.082 2   6.73
 1155.8669 1614.9990  -9.827  1114.19 0.070 2   7.12
  284.7202 1616.2062 -10.794  2730.73 0.031 2  11.42
  199.2494 1618.6676  -9.132   531.18 0.120 2   7.68
  527.3823 1618.9103 -12.904 18090.87 0.027 2  16.95
 2347.3340 1619.4873  -9.542   682.39 0.118 2  10.30
  666.7955 1621.4348 -10.113  1238.60 0.071 2   7.43
  902.6055 1622.1688 -10.959  2996.01 0.032 2   8.58
 2542.5996 1622.9325 -11.754  5684.58 0.080 2  11.62
 3315.2185 1622.9131 -12.188  9793.66 0.060 2  13.08
 3147.1541 1626.9609 -10.647  2380.25 0.079 2   8.11
 3843.4929 1626.8678 -11.311  3720.67 0.068 2   7.48
   39.5594 1628.0214 -11.442  4606.66 0.030 2  11.51
 1140.0839 1629.1034  -9.559   949.03 0.081 2  12.00
  257.1845 1632.6603  -9.612   861.12 0.069 2   7.40
 3935.6733 1633.8558 -10.091  1294.17 0.091 2   8.44
 1176.2686 1636.0717  -9.203   659.61 0.080 2  10.07
  169.6719 1637.4579  -9.045   563.94 0.137 2   8.28
  766.8555 1639.8772 -10.090  1448.24 0.056 2   7.85
 3400.6584 1641.4592  -9.362   613.44 0.115 2   6.17
 1731.7662 1641.9969 -10.140  1364.14 0.085 2  14.05
  311.8064 1642.8385  -9.348   702.25 0.084 2   7.87
 1047.6199 1642.7926  -9.600   832.09 0.078 2   8.33
 2635.1213 1642.9863 -12.476 13103.12 0.066 2  10.40
 2673.5339 1644.3361 -12.189  7771.97 0.079 2  11.50
  652.9837 1644.9137  -9.516   892.90 0.104 2   7.88
 1495.3822 1644.9915  -9.991  1151.91 0.091 2  13.26
 1878.9080 1644.6918 -10.163  1371.22 0.075 2  14.22
 1417.7988 1646.9447 -10.320  1728.35 0.060 2   9.58
 1134.7572 1648.4441 -11.239  3625.89 0.040 2  12.05
 1721.8333 1647.8828 -13.042 20264.82 0.057 2  16.66
 3498.8999 1650.3707 -11.779  6193.79 0.067 2  10.36
  728.0993 1653.9049 -10.109  1544.11 0.046 2   9.67
 1163.5947 1658.0953  -9.731   956.40 0.067 2   8.96
 2692.7913 1659.3820  -9.933  1040.48 0.105 2  10.72
 3284.9290 1659.6189 -12.958 17494.28 0.069 2  15.49
 2209.1833 1662.8586  -9.805  1005.39 0.084 2   7.45
 2698.3062 1664.4808  -9.057   442.91 0.122 2   8.48
 2774.0820 1663.8713 -10.352  1770.00 0.087 2   7.25
  300.5260 1671.1758  -9.170   595.90 0.123 2   7.43
   47.6581 1672.7120 -10.369  1678.97 0.051 2   7.53
  573.4371 1673.5356  -9.490   673.60 0.070 2   8.69
 3121.9365 1675.1525 -12.766 16676.21 0.066 2  13.07
 2635.0837 1676.1239  -9.636   945.56 0.061 2   9.52
 1821.8818 1678.4783 -11.002  2745.30 0.060 2   9.54
 1355.6045 1678.7208  -9.285   580.18 0.133 2  12.44
  634.4402 1680.3278 -12.145  7580.20 0.036 2  14.07
 1130.1506 1684.8589  -9.999  1283.41 0.073 2   9.52
 1347.4728 1686.8280 -10.099  1232.39 0.070 2  12.62
   73.3968 1688.4489 -10.696  1893.23 0.035 2   8.58
 4033.8508 1688.7095 -11.179  3664.69 0.057 2   5.64
  927.5278 1690.6190  -9.653   764.92 0.096 2   6.93
 3617.4404 1693.8229  -9.401   689.33 0.100 2   9.27
 2222.5017 1694.8226 -11.041  2729.66 0.064 2   8.69
 3007.0205 1695.5219 -11.685  5180.63 0.071 2   9.69
  474.7753 1697.0492 -12.765 16793.74 0.035 2  14.77
 3230.5999 1699.3481 -11.067  2881.51 0.075 2   8.17
  786.3708 1699.5950 -11.533  4715.40 0.037 2   8.36
 3266.8203 1699.6777 -12.262  9159.70 0.070 2  14.45
 1494.8102 1704.7424 -11.596  5139.74 0.053 2  14.45
 2207.3652 1706.4894 -10.651  1771.94 0.086 2   8.49
  360.7466 1711.5298 -10.908  2524.38 0.035 2   9.83
 1757.9766 1711.0181 -11.165  3863.97 0.064 2   9.22
  343.0655 1711.5669 -11.789  6199.75 0.029 2  12.03
   39.0346 1713.4066  -9.414   784.93 0.092 2   7.93
  829.5963 1716.0778 -10.198  1511.02 0.056 2   9.80
 3913.0105 1717.5385  -9.962  1095.05 0.107 2   8.08
 1936.5648 1719.7688  -9.688   817.61 0.064 2  11.63
  856.9344 1720.6111 -11.255  3773.92 0.049 2   7.82
 1967.6564 1721.5610 -11.967  5975.10 0.072 2  10.87
   82.7000 1722.1747  -9.938  1289.82 0.095 2   9.11
  171.5659 1723.6300  -9.886   934.97 0.051 2   7.74
 3020.5437 1724.0942 -10.008  1125.84 0.084 2   8.47
 3225.1855 1725.0662  -9.998  1242.74 0.081 2  10.11
 3602.8213 1724.8744  -9.911  1192.30 0.084 2   7.44
 1463.2542 1725.9437 -11.704  5984.33 0.060 2  11.41
 3308.3694 1726.3424  -9.826   886.96 0.108 2   9.35
 3625.0393 1726.7323 -10.024  1327.82 0.098 2   7.44
 2583.4348 1730.8451 -11.329  3753.23 0.075 2  12.06
  277.7456 1733.5547 -10.201  1373.91 0.055 2   8.35
  100.8539 1733.8016  -9.260   685.72 0.104 2   6.23
  962.8475 1738.8259  -9.683  1053.37 0.056 2   7.81
 1231.5481 1739.0382  -9.303   638.98 0.076 2   9.02
  623.4235 1741.9830 -10.162  1441.96 0.058 2   6.73
  576.6324 1743.4591  -9.427   699.21 0.118 2   6.56
 3534.7969 1744.0769 -11.850  7123.33 0.065 2  11.74
  733.1187 1746.1089 -10.293  1711.48 0.063 2   5.10
 3898.8237 1746.0175 -10.823  2752.81 0.077 2   8.83
 3166.3242 1751.9731 -11.527  5000.68 0.071 2  12.14
  194.4725 1755.1578  -9.721   880.99 0.077 2   5.92
  812.0778 1757.4044  -9.685   966.91 0.079 2   6.91
 2866.1143 1756.6844 -12.042  7999.74 0.069 2   9.76
  242.5288 1758.7314 -10.517  1721.92 0.033 2   6.21
 2139.2441 1764.0198 -10.410  1796.74 0.072 2   8.30
 1954.9066 1767.8567  -9.638   928.12 0.084 2   7.31
 2417.7849 1768.8809  -9.283   657.44 0.121 2   6.08
 1028.2316 1769.8239 -12.286 10551.14 0.045 2  11.66
 3400.6150 1771.1249 -11.741  5825.48 0.066 2  11.84
 2965.0120 1772.5653 -11.926  6557.98 0.071 2   8.48
   45.4907 1773.8633 -10.568  1972.00 0.057 2   9.27
 3777.2966 1775.1169 -13.237 24784.03 0.054 2  15.83
 3355.8745 1776.7994  -9.387   728.10 0.119 2   5.66
 1601.7422 1784.4030 -10.318  1520.72 0.100 2   8.91
 1511.5991 1785.8434  -9.369   610.93 0.098 2   7.83
  337.3964 1787.0898 -11.319  4067.24 0.046 2  10.96
 3420.7195 1788.1278  -9.238   633.91 0.105 2   8.52
 2001.5149 1789.1100 -10.306  1408.38 0.094 2  10.22
  848.0496 1790.6143 -11.140  3567.97 0.030 2   9.72
  931.1865 1793.3379 -12.479 11992.43 0.032 2  15.93
 3971.7024 1792.6416 -11.755  5603.99 0.041 2  11.78
  764.8112 1794.0090 -10.121  1541.46 0.045 2   6.58
  517.7527 1800.7074  -9.928  1121.99 0.063 2   8.20
 3996.1472 1801.2513 -10.241  1607.68 0.059 2  13.73
  337.1624 1802.6995 -11.785  6687.54 0.037 2   9.93
  546.2169 1805.0056 -11.339  4436.33 0.038 2  10.09
 4084.4253 1805.2103 -12.394 10748.73 0.043 2  11.89
 3700.7104 1808.3855 -12.730 14205.69 0.052 2  16.86
 2455.7695 1809.3201 -10.525  1840.11 0.100 2   8.63
 2186.2832 1812.2886  -9.610   754.92 0.089 2   8.77
 3152.9441 1811.5980 -10.148  1305.17 0.081 2   8.09
 2042.9603 1814.0453 -12.969 20050.07 0.056 2  19.81
 2343.9058 1813.9030 -11.625  5699.65 0.075 2   9.29
 2645.8752 1815.6077 -11.727  5590.52 0.065 2  10.19
  663.6912 1817.2582 -10.872  2874.43 0.055 2   9.40
 2941.1963 1816.9238 -13.673 36880.02 0.068 2  17.41
 2607.2073 1821.4312 -11.172  3132.21 0.083 2   8.37
 4016.8770 1822.3655 -14.427 68203.44 0.000 2  37.85
  625.9711 1824.8149 -10.074  1396.26 0.063 2   8.38
 2567.7046 1825.5729 -10.382  1403.67 0.091 2   8.42
  263.5940 1826.6045  -9.885   953.29 0.071 2   8.83
 2537.5857 1827.5371 -12.607 10672.26 0.073 2  11.96
 2795.6641 1827.4242 -14.443 65397.99 0.000 2  37.64
 3293.9734 1828.0322 -10.705  2534.58 0.064 2   8.02
 3874.5708 1829.5199 -14.354 52689.52 0.056 2  28.34
  426.6640 1834.1355  -9.487   792.65 0.062 2   8.24
 2842.6311 1834.3440  -9.810   941.52 0.103 2   8.65
  290.0014 1835.3472 -10.205  1512.26 0.055 2   7.02
  891.4855 1834.9410 -10.522  1942.39 0.031 2   9.16
  237.4999 1836.0045 -11.803  6117.39 0.033 2   9.59
  958.9084 1837.1936 -13.257 26489.80 0.034 2  16.60
 1155.3618 1837.2091 -11.074  3131.87 0.049 2   7.59
  744.5022 1837.5519 -10.536  1746.35 0.038 2   9.98
   75.9871 1839.2795  -9.458   854.17 0.092 2   9.27
 3573.7556 1839.7972 -10.507  1904.33 0.075 2   5.83
 2029.3925 1841.7383 -10.150  1307.86 0.084 2  12.63
  435.5708 1845.3983 -11.069  2918.54 0.035 2  11.76
 1717.8527 1844.7354  -9.769   987.14 0.085 2   7.70
 1913.7195 1846.0779 -12.735 15353.10 0.060 2  14.57
 2054.8430 1846.1575 -12.741 15797.46 0.062 2  17.28
 2322.1572 1847.2975  -9.412   736.81 0.104 2   7.97
 3284.6445 1851.7383  -9.614   811.57 0.089 2   7.23
 4013.0220 1851.9410  -9.398   800.80 0.088 2  12.07
 1169.2739 1855.1240  -9.434   775.78 0.079 2  10.23
 2019.7388 1856.1157  -9.483   798.11 0.088 2  11.91
 3589.3706 1856.8300 -10.144  1416.49 0.079 2   9.09
 1210.0345 1857.8748 -12.383 12469.67 0.030 2  15.13
 2684.3789 1860.3616  -9.803   910.35 0.095 2   7.81
  120.4023 1862.0944  -9.675   947.62 0.068 2   8.28
 3895.6709 1863.3989 -10.656  2039.74 0.073 2  13.59
 2046.8551 1863.9366 -11.598  5570.90 0.064 2  14.35
 3672.8755 1864.1064 -11.129  3616.58 0.073 2  10.33
 2890.0232 1869.1030 -11.172  3861.54 0.078 2  11.33
  566.9800 1870.8588 -11.660  6376.24 0.041 2  13.47
 1133.6154 1871.1798 -10.719  2440.58 0.057 2   9.01
 3905.0400 1871.5397 -11.547  4697.48 0.051 2  12.36
 1426.4176 1873.0531 -10.789  2426.73 0.050 2   9.30
 1983.2961 1877.1139 -10.894  2639.80 0.073 2  10.00
 1085.2880 1877.8385 -10.497  2029.92 0.049 2   7.58
 2254.2134 1877.9592 -11.448  4793.66 0.069 2   8.08
  660.1707 1879.8505 -12.358 11823.76 0.034 2  10.48
 2487.7275 1880.5140 -12.420  9529.78 0.070 2  12.74
  577.5141 1880.6705 -11.422  4019.26 0.034 2  12.55
 3575.5715 1881.9133 -10.366  1611.96 0.062 2  10.47
 3487.4365 1883.9756 -10.813  2437.12 0.065 2   8.72
   46.8567 1886.3173  -9.372   700.99 0.087 2   8.42
   23.1468 1888.3386  -9.478   816.48 0.090 2   6.99
 1005.7943 1891.3790  -9.315   710.09 0.059 2   9.04
  404.1538 1892.1613 -10.018  1432.00 0.052 2   7.65
 1590.6737 1892.6343 -10.663  1966.53 0.073 2   9.30
 1414.7742 1894.0691 -10.059  1442.35 0.096 2  10.12
 2868.4294 1894.4314 -11.639  4285.70 0.076 2   9.48
  257.0965 1898.4709 -10.323  1477.23 0.062 2   5.89
 3961.7417 1899.4215 -10.543  1891.63 0.056 2   9.08
  728.1780 1901.4193 -11.591  5003.54 0.042 2   9.27
 2908.4387 1901.4760 -10.369  1357.06 0.074 2   7.94
 2719.0547 1906.8127 -10.972  3044.98 0.090 2   7.72
 1155.5875 1911.6174  -8.941   431.45 0.122 2   6.66
  545.6913 1912.2257 -10.922  2924.58 0.046 2   7.23
  440.6034 1912.5923 -11.972  6163.10 0.034 2  15.40
   56.9612 1915.4078 -11.244  3388.55 0.171 2   9.20
 1893.2377 1914.7408 -11.637  5456.84 0.054 2   8.09
 3804.1240 1918.0898 -14.450 68214.69 0.000 2  35.96
  501.8412 1922.1573  -9.371   734.75 0.077 2   6.11
  978.4279 1922.1106 -10.635  2003.90 0.081 2  19.36
 2187.9768 1922.3870 -10.340  1543.23 0.096 2   6.97
 1270.4790 1923.7499  -9.491   678.34 0.110 2   9.21
  621.5128 1924.9196  -9.586   833.40 0.104 2   9.59
 1100.2700 1924.5442 -10.929  2735.89 0.043 2   9.39
 3977.9998 1925.1836 -11.825  7469.17 0.048 2  12.91
 3999.9023 1924.6418 -11.084  3319.59 0.054 2  12.10
 3595.9890 1928.8678 -14.433 68065.38 0.000 2  38.31
  976.6851 1930.8593 -13.243 24624.58 0.032 2  19.30
  634.8661 1933.1235 -11.718  6492.15 0.044 2  13.84
 2958.5854 1932.7142 -12.792 13274.04 0.058 2  14.94
  456.1124 1935.8263  -9.277   719.75 0.101 2   9.25
  802.2675 1938.0220  -9.352   745.05 0.118 2   6.07
  910.3172 1938.2650  -9.824  1115.06 0.073 2   7.37
 1018.4407 1941.6451 -12.214  8751.22 0.027 2  10.32
 3543.2961 1944.3485  -9.077   507.25 0.088 2   8.27
 1781.6783 1945.2415 -11.914  7091.35 0.057 2  33.75
 3508.4458 1947.0347  -9.478   750.72 0.092 2   9.14
 1749.0920 1950.4507 -16.576 77821.61 0.000 2 191.26
 2514.2476 1951.8087 -10.320  1673.98 0.056 2   7.76
 2306.9561 1954.4626 -11.087  3002.89 0.077 2   8.29
  156.9632 1955.0348  -9.348   871.51 0.129 2   9.38
 1821.9354 1955.5934  -9.526   736.89 0.082 2  13.89
 3595.7600 1957.6764 -11.100  3166.54 0.061 2  12.14
 3786.4470 1962.7916  -9.810   972.58 0.064 2   7.65
 1018.6659 1965.2657  -9.789  1094.70 0.061 2  10.24
  494.1821 1966.4333 -11.808  5922.22 0.037 2  11.98
 3174.7175 1965.8655 -12.042  8167.53 0.049 2  13.18
 3048.5320 1966.6719 -11.911  5817.57 0.062 2   8.06
 3985.8704 1973.2112 -11.847  7473.48 0.039 2  10.48
 1430.9364 1979.2152 -11.824  7324.21 0.054 2   9.72
 1243.3779 1979.9230 -11.089  3308.65 0.054 2   9.33
 3134.2173 1987.9553 -10.521  2077.49 0.081 2   8.99
 2190.8672 1989.9335 -11.241  3990.65 0.075 2   9.11
  870.6381 1992.2303  -9.279   674.60 0.084 2   8.94
 2770.0247 1995.5878 -10.046  1186.33 0.101 2   9.42
  236.0602 1999.9885  -9.627  1023.91 0.058 2  10.25
 2391.4849 1999.8016 -10.111  1174.74 0.070 2   7.40
  279.2041 2002.7573 -14.290 66183.94 0.037 2  28.22
  315.5191 2009.2579 -12.381 10412.01 0.025 2  16.62
 2850.3977 2009.7045 -10.198  1369.07 0.079 2   5.72
  532.4709 2014.2269  -9.191   584.80 0.098 2   7.96
 1206.7129 2013.9739 -12.821 17920.06 0.031 2  16.08
 3592.6296 2015.3655 -10.344  1492.52 0.085 2   8.64
 1460.9924 2015.8059 -11.059  3510.92 0.060 2   8.29
 3373.5698 2015.9352 -12.150  8315.04 0.046 2  11.98
 3827.7717 2016.6481  -9.111   527.57 0.125 2   3.84
  419.9362 2021.7755 -11.718  6470.96 0.040 2  10.47
 1158.1244 2021.6000  -9.541   818.33 0.084 2   6.89
 2370.2000 2028.7032 -10.197  1409.81 0.085 2   9.61
  564.6141 2029.7140 -10.393  1450.37 0.077 2   7.35
  489.4983 2033.5851  -9.883   972.97 0.062 2   8.93
 4043.3726 2034.6858 -11.178  3692.39 0.047 2   6.78
 1699.7231 2035.8733 -11.670  5702.32 0.058 2   9.03
 2773.8650 2035.7784 -10.168  1440.65 0.082 2   7.96
 1472.6454 2038.0773  -9.266   675.53 0.075 2   9.23
 2755.0117 2037.5747 -11.302  3701.25 0.064 2   6.73
  690.3232 2041.9795 -10.030  1285.48 0.076 2   8.10
  824.3162 2056.5103  -9.407   644.08 0.093 1  11.15
 3253.0500 2057.3679 -17.428 72585.47 0.000 1 388.16
  645.0768 2057.6660 -12.250 10283.41 0.029 1   8.49
 1953.9568 2062.0125 -12.719 16424.23 0.038 1   8.55
  728.2434 2062.8875 -11.301  4407.84 0.036 1   6.86
  863.2894 2062.7832 -12.420 11866.10 0.024 1  10.52
 1904.3206 2063.8828 -10.083  1286.34 0.079 1   8.02
 3325.2783 2065.2791 -11.595  5167.61 0.046 1  18.35
 2567.8276 2068.7561 -10.479  1882.39 0.069 1   9.54
  439.8965 2070.6672 -12.425 11947.09 0.029 1  13.73
 3776.1382 2074.4724 -13.776 35935.07 0.038 1  18.22
 1842.3610 2074.4600  -9.492   656.98 0.057 1   9.01
  811.4564 2076.1238 -10.963  2898.23 0.039 1   9.03
 2193.7375 2076.5432 -10.874  2323.82 0.060 1   9.45
 2997.2415 2081.7383 -11.685  5841.92 0.056 1  13.17
  557.6305 2083.1875  -9.594   865.24 0.064 1   9.00
 2125.4263 2082.9763 -11.094  2986.80 0.067 1  10.46
  597.3531 2085.4863  -9.231   567.78 0.096 1   8.04
 4056.4146 2086.1648  -9.961  1162.88 0.054 1   7.16
  307.0459 2087.4612 -12.418 10969.99 0.040 1  19.65
 2536.3032 2088.8889 -10.335  1715.61 0.063 1   7.86
  318.1143 2095.7288 -13.067 22363.65 0.033 1  17.32
  640.9940 2095.5098 -11.180  3324.75 0.043 1   8.37
 1006.0303 2095.5923  -9.412   782.36 0.097 1   9.79
 1307.0872 2096.0132  -9.757  1137.73 0.066 1   6.34
  906.8391 2100.2554 -10.411  1881.85 0.044 1   7.98
 1407.8375 2106.7932 -13.649 34823.76 0.044 1  22.95
 1190.5817 2108.1990  -9.900  1029.98 0.070 1   6.60
 1355.2191 2108.1042 -12.064  8677.70 0.041 1  12.01
  681.4835 2111.7988 -10.330  1609.08 0.057 1   9.00
  247.1993 2113.2678 -10.855  2754.11 0.044 1  10.53
 1262.3246 2114.3071 -10.451  1727.90 0.042 1   7.47
 4088.4475 2115.7568  -9.669   843.94 0.079 1   6.11
 1695.8000 2116.8406  -9.698   989.04 0.079 1   6.45
  338.9983 2119.8564 -10.430  2057.60 0.040 1  11.78
 3725.2422 2120.2122  -9.349   727.73 0.075 1   6.64
 1655.4633 2121.5142 -10.656  1771.57 0.054 1   8.90
 2403.0276 2122.9746  -9.770  1125.98 0.066 1   7.40
 2284.9131 2124.1018 -10.511  2142.28 0.057 1   9.14
   17.8230 2125.7456 -16.203 74133.12 0.000 1 145.49
 2629.9209 2124.9722 -12.939 19745.71 0.046 1  17.33
 2727.8870 2125.4490  -9.156   528.23 0.098 1   7.04
  310.6516 2129.0713 -11.117  3567.83 0.031 1  13.90
 1520.6453 2131.1282 -10.713  2326.93 0.061 1   7.00
 1811.2070 2132.4885 -10.547  1704.37 0.068 1  11.35
 2980.1589 2133.1165 -11.069  3493.53 0.059 1  10.59
  644.4617 2133.8604 -11.186  3470.91 0.037 1   9.22
 1166.8281 2133.6338  -9.918  1058.38 0.081 1   9.12
 2564.7515 2135.2720 -12.921 17829.21 0.057 1  19.61
  767.6656 2137.6392 -10.342  1538.44 0.053 1   9.27
 2996.7551 2137.7090 -12.763 14656.79 0.045 1  16.75
 1906.1211 2139.5349 -12.201  8202.29 0.049 1  15.12
 2357.4839 2140.7632 -12.080  7306.29 0.051 1   9.58
 3154.5317 2141.2788 -10.940  2607.79 0.046 1  12.24
 2581.0034 2141.7566 -10.446  1919.13 0.056 1  12.48
 1416.1062 2143.4521  -9.986  1139.58 0.055 1  10.12
 1899.2067 2143.0786 -11.114  3438.72 0.072 1  15.49
 1147.1978 2143.8997  -9.778  1126.57 0.057 1   6.84
 1213.0203 2143.9827  -9.950  1278.56 0.057 1   7.24
 3050.2354 2147.4709  -9.595   726.73 0.083 1   8.73
 1276.8712 2147.8213 -11.148  3547.94 0.070 1  10.02
 2508.8254 2149.7625 -12.222  9435.62 0.044 1  11.39
 2156.7927 2154.4202 -13.014 18132.72 0.051 1  15.60
  243.4931 2155.8069 -10.052  1297.57 0.061 1   8.98
 1670.0573 2155.9102 -10.738  2562.61 0.051 1   8.21
 2684.5579 2159.1912 -10.700  2091.98 0.072 1  11.17
  520.6296 2159.7747 -12.969 18191.34 0.026 1  17.58
 1069.9597 2162.2705  -9.424   823.71 0.099 1   9.07
 2073.3347 2166.9902 -12.624 13390.33 0.044 1  15.60
  773.7011 2167.6042  -9.547   753.71 0.066 1   8.13
   79.2224 2170.1965 -10.106  1432.96 0.086 1  12.17
 1621.4716 2170.1128 -10.557  1832.24 0.056 1   8.07
 3455.9026 2169.6135 -13.411 26826.54 0.039 1  18.59
  810.5326 2171.8254 -10.797  2439.01 0.034 1   9.54
 3272.1929 2172.7795  -9.758  1045.75 0.063 1   9.38
 2292.5051 2174.0178 -11.468  4103.12 0.068 1   8.23
  705.3827 2174.9543 -10.891  2883.05 0.039 1   8.88
 3347.8757 2177.4888 -11.308  3749.60 0.056 1  11.46
  737.1377 2178.2227  -9.780  1083.31 0.079 1   7.85
 1435.4045 2179.5664 -10.014  1124.22 0.055 1   8.34
 3770.5938 2180.8467 -11.982  7083.88 0.032 1  10.78
  248.3745 2181.9692  -9.280   693.29 0.109 1   7.46
   71.0237 2182.6382 -11.602  5711.25 0.046 1  12.69
 1106.7646 2183.1575  -9.293   696.95 0.112 1   8.05
 1581.5192 2183.8501  -9.598   781.28 0.076 1   8.06
  356.1049 2186.4636  -9.020   522.34 0.124 1   8.59
  489.3201 2187.6934 -10.232  1532.23 0.047 1   8.57
 1303.4230 2188.4070  -9.059   455.74 0.085 1   4.82
 1541.4944 2188.1794  -9.632   783.18 0.065 1   8.75
 4045.4976 2188.4697  -9.718   807.41 0.058 1   5.56
 1805.6771 2188.7253 -10.118  1188.75 0.061 1   7.10
  967.3855 2194.8496 -10.869  2677.15 0.077 1   8.87
 1188.8973 2195.2012 -10.135  1470.89 0.060 1   9.80
  585.4862 2196.3188 -10.194  1290.85 0.048 1   9.86
 1042.9393 2195.5005  -9.181   579.95 0.082 1  10.63
 2665.5271 2198.8220  -9.545   735.89 0.075 1   8.56
 3800.4702 2199.1121  -9.705   891.35 0.079 1   8.69
 2248.3132 2202.2463 -10.785  2386.64 0.069 1  10.79
 1456.0159 2205.5239  -9.822   971.63 0.068 1  13.53
 2570.1885 2207.8145  -9.301   761.23 0.079 1   9.88
 3609.9829 2207.7400 -10.957  3104.74 0.044 1   8.48
 1216.0156 2208.7136 -11.966  7936.09 0.026 1   9.23
 2793.1443 2208.5366 -12.326  9438.53 0.052 1  12.56
 2856.1472 2210.1523  -9.512   815.11 0.088 1  11.44
 1323.7574 2214.7776 -10.467  1820.41 0.060 1  12.01
 1411.6527 2214.6814  -9.438   705.99 0.094 1   6.56
  263.1930 2216.3120  -9.761  1023.90 0.089 1  10.75
 1900.5760 2218.4358  -8.961   414.11 0.107 1  10.31
  811.7357 2219.5239 -11.190  3161.03 0.045 1  10.29
 2256.5520 2218.8311 -12.654 11361.13 0.088 1  13.26
  151.5382 2221.2371  -9.950  1517.81 0.357 1  10.47
 3102.2437 2220.9878 -10.814  2779.26 0.053 1   7.24
 1439.4292 2221.7991 -12.029  7596.77 0.036 1   9.74
 3862.4829 2224.0447  -9.863  1065.26 0.072 1   7.15
  115.0125 2225.4282 -12.711 14906.64 0.048 1  14.97
 1594.8743 2229.3442 -11.078  3358.14 0.042 1  11.15
 1637.0303 2228.8787 -11.568  5525.95 0.063 1   9.44
 1775.0813 2228.6433 -10.660  2222.32 0.044 1  10.81
 3910.1084 2229.0566  -9.643   949.93 0.091 1   7.35
  363.8038 2231.0415  -9.659  1015.11 0.063 1  11.06
 1126.0717 2233.6184 -10.860  2608.34 0.037 1   8.13
 2049.1741 2233.9207 -11.185  3750.13 0.065 1   9.13
 4020.6069 2234.1118 -10.938  2757.04 0.049 1   7.72
 1080.9949 2239.8284 -11.189  3880.20 0.045 1  10.11
 1289.9263 2239.8999 -11.180  3880.58 0.068 1  14.64
 2288.5115 2240.0989 -10.843  2389.89 0.060 1   7.31
 3199.1919 2241.7258  -9.313   708.88 0.106 1   8.84
  766.4577 2242.7803  -9.900  1106.70 0.066 1   8.50
 2684.6411 2243.2234 -12.001  7577.69 0.055 1  11.37
 1294.1735 2244.1428 -11.381  4668.01 0.059 1  14.46
 1544.6967 2244.5823 -11.663  4787.79 0.041 1   9.95
 1719.9021 2245.4817  -9.504   703.42 0.080 1   7.68
  912.7364 2249.9128 -12.267 10511.34 0.021 1  12.21
 2343.8547 2250.8843 -11.332  4298.74 0.070 1  10.18
  701.0135 2252.3606 -12.707 14884.85 0.028 1  13.25
  347.6160 2253.4272 -10.684  2080.08 0.037 1  10.00
 1312.5288 2253.3906  -9.244   595.49 0.094 1   9.05
 1769.9880 2253.0728 -10.274  1687.50 0.060 1   9.31
 3602.3379 2252.6968 -11.856  6646.92 0.034 1  10.26
 2921.0891 2260.6270 -10.495  1863.43 0.064 1   8.08
 3787.2632 2260.5811 -11.315  3820.65 0.049 1  11.26
  425.1891 2263.3704 -10.250  1454.30 0.051 1  12.99
 1233.0942 2263.1538 -10.090  1491.45 0.044 1   9.21
 3500.9087 2266.3687 -10.992  3025.43 0.050 1   9.76
  949.8062 2270.7903 -12.985 19918.64 0.027 1  16.53
  801.4166 2273.0845  -9.470   758.83 0.078 1   9.72
 3791.4717 2275.3357 -12.975 16106.20 0.025 1  17.48
 2140.5068 2280.4912 -10.564  1594.51 0.072 1  10.70
 4055.8123 2279.8071 -11.249  4008.55 0.047 1   9.56
 1771.5739 2281.4768  -9.258   512.25 0.098 1   7.39
 3057.7019 2282.5310 -10.376  1506.62 0.063 1   7.04
  239.1078 2283.1611 -10.707  2743.03 0.047 1   7.82
  785.0735 2284.0820 -11.158  4098.71 0.027 1  10.72
 2765.2942 2285.5525 -12.227  8543.98 0.050 1  12.72
 2566.1118 2290.4387 -10.455  1720.40 0.066 1   6.09
 1679.9205 2292.4539 -11.021  2981.16 0.056 1   7.72
  285.8720 2293.7979  -9.469   874.74 0.104 1   9.89
  491.1777 2295.7532  -8.730   623.31 0.484 1  88.92
 3131.0112 2295.7749  -9.267   721.32 0.094 1   7.45
 2981.8618 2303.0898 -10.765  2635.45 0.072 1   8.06
 2471.6472 2307.6597 -10.986  2575.32 0.059 1  10.37
  990.0011 2309.2935 -13.653 36629.16 0.032 1  22.32
 2111.3252 2309.4250 -11.375  3528.54 0.066 1  10.52
 2810.6758 2312.2781 -11.676  5586.21 0.052 1  10.75
 2823.7300 2314.4014  -9.815   975.27 0.080 1   9.83
  154.0849 2317.4961  -9.488   775.54 0.075 1  19.87
 2488.2576 2320.1062 -10.039  1310.21 0.056 1   9.50
 3371.1677 2321.1636 -11.591  5621.84 0.048 1   9.43
  487.8790 2323.2222 -17.513 69693.38 0.000 1 492.18
 3901.8643 2324.4902 -10.649  2120.10 0.051 1   7.89
 2275.1365 2325.5205 -11.532  4297.44 0.066 1   8.43
 3726.3708 2328.0405 -12.108  8636.29 0.036 1  11.90
  750.0440 2328.6978 -10.223  1598.98 0.054 1  12.25
   97.0974 2330.4475 -10.262  1550.87 0.043 1  13.96
  322.5981 2330.4065 -13.209 22097.51 0.031 1  17.00
  619.5324 2330.0291  -8.980   530.25 0.121 1  10.12
  754.6835 2334.1511 -10.481  1920.51 0.065 1  12.38
 2734.6333 2334.4907 -12.588 11227.50 0.042 1  12.11
 2915.5764 2334.7092 -10.437  1519.00 0.070 1   7.11
 1918.5973 2338.0635 -12.427 10967.32 0.047 1  10.43
 2099.6687 2337.9890  -9.351   717.48 0.078 1   8.13
  929.4222 2338.8245  -9.916   756.39 0.281 1   9.98
 2147.8923 2339.8735 -10.976  3107.72 0.059 1  10.78
 2949.2791 2341.0532 -10.837  2772.53 0.055 1   7.87
 3032.3447 2343.9790 -11.745  6408.76 0.043 1   8.49
  998.8494 2345.7747  -9.855  1151.87 0.081 1  11.12
 3136.8521 2346.5652 -11.646  4970.86 0.054 1  11.43
 1831.9211 2348.8298 -12.173  9404.46 0.049 1  11.97
  203.6635 2350.8557 -11.632  5579.85 0.036 1  13.29
  682.4537 2351.6763  -9.642   876.09 0.065 1  10.99
 1174.0597 2352.7925 -10.736  2684.17 0.055 1   7.84
 3696.5667 2354.1536 -11.663  5166.12 0.044 1   9.84
 2280.0605 2357.2566 -10.078  1346.92 0.074 1  10.35
 3464.8340 2359.4917 -11.024  2744.56 0.067 1   9.39
 2421.8306 2359.5859 -10.065  1170.84 0.068 1  10.92
 1357.4364 2360.6587 -10.252  1419.24 0.047 1   7.67
 2802.8171 2362.4495  -9.422   729.79 0.076 1   8.83
  142.7780 2363.8979 -16.046 74078.19 0.000 1 127.07
  312.2809 2363.5598  -9.233   670.87 0.121 1   9.94
 2728.7961 2363.8501 -12.383 11382.19 0.041 1  15.35
 2983.0864 2365.5454 -11.350  3810.06 0.052 1   9.63
  457.1938 2369.9138 -10.538  2184.54 0.055 1  31.95
  281.6136 2373.7405 -12.186  8499.12 0.074 1  12.74
 1947.7542 2374.0859 -11.591  5366.94 0.050 1  11.97
 1537.1967 2374.9873 -12.071  8807.92 0.044 1  11.02
  771.4319 2376.4565 -12.821 13921.51 0.021 1  20.14
  104.8798 2378.7847 -11.070  3569.50 0.041 1  17.36
  709.7103 2379.4089 -11.902  6942.17 0.031 1  11.04
 1200.2135 2380.4695 -10.801  2299.10 0.051 1   9.15
  652.8448 2385.4871  -9.174   530.56 0.100 1   8.08
  761.9406 2390.4187  -9.104   563.48 0.110 1  20.68
 2467.3667 2395.5671 -10.914  2449.82 0.064 1  10.10
 2602.8391 2397.0981 -10.425  1935.10 0.056 1   6.96
  382.1009 2398.1077  -9.415   829.27 0.084 1  15.20
  731.7079 2398.4163 -10.460  1858.69 0.052 1  11.13
  624.4215 2402.1667 -10.953  2860.56 0.039 1   9.57
 3949.3928 2402.1526 -11.960  7227.12 0.038 1  11.88
 1620.6042 2403.6904 -10.081  1133.40 0.068 1  10.24
 1392.0676 2405.6992  -9.229   606.41 0.079 1   5.09
 1019.5085 2406.4817 -10.030  1054.79 0.053 1   7.55
  322.2076 2407.7183 -13.906 46571.48 0.032 1  21.82
  760.2946 2407.7114 -12.234 10002.70 0.021 1  18.10
  770.0184 2409.0767 -11.115  3972.11 0.025 1  17.41
 1662.7028 2412.3025  -9.815  1005.52 0.064 1  10.18
 1962.8562 2416.4092 -10.417  1707.36 0.062 1   7.38
 1636.5406 2416.9053  -9.278   605.79 0.078 1   8.05
 3515.9983 2418.1365  -9.637   948.83 0.074 1   7.20
 2517.3516 2419.7197 -11.203  3395.07 0.085 1  17.59
 1546.4319 2420.4575 -10.667  1839.85 0.052 1   8.66
  846.4929 2422.4595 -10.810  2236.69 0.033 1   9.62
 2162.3591 2423.0193 -12.020  7917.39 0.034 1  10.07
 2999.5134 2423.2974  -9.675   839.80 0.092 1   7.19
 2523.9702 2424.9087 -13.028 21596.10 0.042 1  16.60
 1684.3464 2429.1023 -11.152  3386.51 0.064 1   7.53
  103.8201 2430.0422 -11.159  4055.92 0.044 1  10.86
  590.2328 2429.8149  -9.378   783.93 0.081 1   9.37
  872.7196 2433.4827  -9.048   509.54 0.125 1   9.84
 2320.2803 2434.3176 -10.067  1250.26 0.074 1   8.69
 3902.4773 2433.6826 -11.450  4130.64 0.040 1   7.19
 1820.1091 2438.9856 -11.456  4930.50 0.058 1  11.38
 2344.9470 2440.9016 -10.063  1380.25 0.071 1  10.53
 1719.1364 2442.4336 -10.448  1670.53 0.063 1   9.18
  606.7527 2443.0984 -10.317  1840.31 0.047 1  12.17
  140.2236 2447.3665 -10.855  2591.32 0.053 1  10.75
 2887.9971 2450.8694 -11.741  6811.26 0.036 1  11.76
 2357.0850 2453.8369 -13.120 22481.59 0.044 1  16.82
 2675.2683 2456.6194 -11.688  5467.86 0.047 1   8.42
  871.2708 2457.5972 -10.500  1888.05 0.058 1  10.82
  422.6440 2459.1855  -9.490   770.83 0.096 1  29.55
  608.8700 2458.7981 -10.229  1695.20 0.049 1  11.64
 2907.7385 2458.6838 -10.309  1541.28 0.049 1   8.80
  232.9982 2461.7686 -12.402 12780.19 0.039 1  15.43
  904.7235 2463.8779 -10.916  2961.74 0.036 1   9.17
 1786.5300 2463.5400  -9.555   708.34 0.079 1   9.69
 2781.0991 2464.9333 -11.586  5791.36 0.044 1  11.85
 1640.5813 2467.2102 -12.080  7990.01 0.045 1  11.86
 2799.8772 2467.2993 -10.975  3064.83 0.066 1  11.98
  654.2795 2467.7168  -9.574   884.48 0.073 1  12.73
 1098.1058 2467.6089 -10.525  1623.81 0.252 1   8.64
  739.1833 2470.1528  -9.380   766.61 0.089 1   8.19
 1385.2526 2470.1262  -9.789  1037.84 0.056 1   7.95
  261.1251 2475.2119 -10.340  1766.89 0.042 1  16.18
  444.2210 2474.5591 -16.082 69609.21 0.000 1 134.38
 3813.5286 2474.6545 -10.756  2023.43 0.038 1   6.61
 1059.0647 2475.8745 -12.197 10499.41 0.025 1  13.04
  975.5168 2477.5632 -11.241  3195.92 0.028 1  10.77
 3247.7261 2480.7881  -9.357   734.01 0.075 1   7.20
  489.9475 2483.7312 -11.076  3432.43 0.042 1  21.96
 3322.5127 2484.3850 -10.262  1287.26 0.055 1   7.92
 1552.9132 2486.0989 -12.689 15701.67 0.041 1  13.68
 3620.5967 2487.8391 -11.812  6099.18 0.038 1  10.68
 1031.2073 2489.0488  -9.352   781.30 0.081 1  12.24
 1050.8735 2488.8838 -12.081  9261.35 0.028 1  13.06
 1459.7708 2494.3113 -10.942  2937.97 0.044 1  10.08
 2556.2471 2494.2935 -11.644  5383.98 0.054 1   8.36
  640.0114 2497.3911 -11.894  7216.35 0.029 1  10.66
 1465.1525 2498.6572  -9.468   732.22 0.102 1  16.22
  210.4490 2502.8430 -11.931  7239.35 0.043 1  11.55
  486.6071 2503.0256 -11.530  5157.74 0.028 1  27.11
  513.3337 2503.0349 -10.560  2212.99 0.041 1  13.43
 3748.0837 2502.7639  -9.781  1058.42 0.069 1   8.50
  299.6530 2504.9814 -15.400 70743.42 0.000 1  73.83
 1298.3270 2504.5916  -9.263   607.06 0.086 1   8.36
 2436.1477 2507.9722  -9.646   921.18 0.078 1   7.14
 2108.4023 2508.4202  -9.185   504.75 0.088 1   8.20
 2804.5420 2509.7600 -10.315  1390.59 0.133 1   7.73
 1901.9574 2510.6621 -12.668 14004.17 0.039 1  11.82
 2473.0857 2510.8987 -11.331  4579.65 0.051 1   9.47
 3410.3071 2513.1313  -9.106   566.01 0.081 1   6.34
 3485.2651 2513.1909 -11.432  4791.78 0.037 1  10.90
 3101.7529 2515.2478 -13.095 21370.02 0.034 1  16.86
  711.7634 2515.8267 -11.861  7266.94 0.028 1  10.60
 1044.5779 2515.6709  -9.939  1037.03 0.070 1  10.44
 3445.0198 2515.6709 -10.944  2914.91 0.053 1  11.39
 1826.5897 2518.0859 -11.972  7375.76 0.045 1  10.41
 3300.0251 2518.9070 -11.675  6453.43 0.029 1   9.23
   19.6955 2522.2065 -11.574  5736.31 0.051 1   9.34
 2024.7461 2526.4824 -10.528  1810.78 0.041 1   9.02
 1547.5547 2526.8826 -12.140  7937.15 0.040 1  12.17
  756.1882 2528.0344 -10.826  2947.89 0.040 1   9.85
 2780.0774 2529.3467 -10.470  1932.64 0.056 1   8.67
 2159.1682 2529.7537 -13.452 28860.26 0.047 1  18.44
  338.3419 2531.0393 -12.410 11834.81 0.037 1  21.11
 3712.3745 2530.7188 -13.109 20482.48 0.040 1  15.67
 3094.5583 2532.9333  -9.991  1156.55 0.055 1  11.77
  214.8417 2536.0984  -9.423   932.76 0.118 1   8.81
 2699.5630 2536.1619 -10.112  1326.78 0.042 1  10.80
  425.1094 2538.6433 -12.145  9294.62 0.035 1  17.01
 3069.9114 2539.5171  -9.195   560.71 0.084 1   6.87
  559.3179 2540.6633 -12.094  8547.92 0.024 1  12.41
 1656.2369 2546.1514  -9.912  1177.92 0.065 1   6.42
   48.1611 2547.0730  -9.177   642.56 0.125 1   9.59
 3444.8774 2547.1851 -12.532 13544.20 0.038 1  12.98
  576.6876 2547.7517  -9.389   713.92 0.090 1  13.00
 1109.7344 2550.0747  -9.089   636.05 0.107 1  10.23
 4033.0466 2551.1155  -9.673  1009.53 0.063 1   6.48
   97.3730 2553.3921 -11.477  4228.67 0.053 1  11.08
 1903.8273 2553.2073 -11.501  5100.45 0.053 1  12.70
 3006.9231 2553.4907 -10.522  1785.21 0.053 1   8.79
 3908.8440 2553.8440 -10.403  2538.09 0.493 1   5.90
 3723.9268 2565.1675 -11.000  3338.94 0.056 1   9.78
 2452.5635 2567.5447 -10.142  1139.08 0.043 1   9.78
 1142.6554 2571.4033 -13.839 38627.09 0.025 1  23.23
 1322.3804 2570.5930 -10.428  1624.72 0.037 1  10.61
  956.9050 2574.3450 -10.078  1346.43 0.072 1  10.25
  492.4893 2574.6089 -10.644  1960.92 0.034 1   9.69
 1827.3513 2574.5681 -12.355  9576.79 0.036 1  15.61
  377.7306 2578.3462 -11.197  3788.57 0.039 1  11.62
 1114.9071 2577.5229  -9.147   569.89 0.096 1  12.02
  977.9626 2585.0913 -12.987 21478.15 0.023 1  15.62
 1130.4606 2586.9333  -9.882  1055.83 0.061 1  16.24
  573.0169 2589.2329 -11.202  3991.27 0.037 1   9.82
 1696.3030 2588.8577  -9.392   729.19 0.085 1   8.31
  900.0164 2590.1313  -9.775  1163.47 0.059 1   8.82
 1815.1364 2590.9802 -11.511  5247.49 0.047 1  10.94
 3370.0034 2591.3779 -11.009  3097.38 0.054 1   9.85
 3531.1729 2595.2214 -11.779  6706.65 0.038 1  15.38
 2555.2554 2599.4153  -9.115   498.77 0.085 1   7.68
  629.2629 2600.8193  -9.323   730.92 0.083 1   7.72
 1879.3090 2603.3167 -12.376  9863.22 0.040 1  12.96
 1304.2980 2603.5369  -9.881  1010.72 0.053 1   8.15
 1277.1467 2606.5283 -10.141  1277.99 0.052 1   8.70
 3636.4314 2606.8494 -12.032  7887.16 0.037 1  12.72
 1404.6472 2608.4619  -9.613   730.43 0.081 1   8.81
 3230.5891 2609.3992 -10.554  1842.75 0.047 1  10.10
 3799.3931 2613.4553 -11.200  3103.73 0.033 1   9.03
  832.7513 2615.2427  -9.987  1265.36 0.056 1   7.32
  364.5427 2616.7815 -10.264  1484.08 0.057 1   7.09
  885.0253 2617.3975 -10.586  2138.76 0.032 1  10.63
 2222.3916 2616.8062 -10.868  2510.90 0.056 1  11.24
  260.4890 2621.2886  -9.588   749.98 0.077 1   8.62
 1102.2616 2621.8132 -11.745  6479.08 0.029 1  11.42
 1170.5427 2622.4390  -9.875   879.85 0.091 1  14.03
 3554.9939 2621.8723 -14.796 68348.04 0.000 1  59.13
 3313.6475 2623.8140  -9.391   658.89 0.093 1   5.35
 3547.3489 2626.0852 -13.413 27969.44 0.046 1  46.32
  380.2578 2628.9399  -9.243   720.27 0.094 1   9.40
  727.5888 2629.6353  -9.878   943.42 0.048 1  12.07
 1565.4724 2630.3508 -10.178  1217.90 0.038 1   9.99
  982.1873 2631.7664 -11.246  4189.48 0.037 1  15.06
 1171.1198 2632.0806 -10.980  3350.15 0.035 1  11.02
  435.8315 2634.7800  -9.644   971.24 0.071 1  10.20
  481.4855 2637.2378 -11.778  5930.89 0.027 1  11.31
  215.0243 2638.3267  -9.967  1253.73 0.057 1  12.32
  872.2198 2640.8547  -9.165   689.74 0.089 1  10.19
  344.3296 2644.2002 -11.290  4126.82 0.037 1  11.14
 1117.1619 2646.0142 -12.076  9014.15 0.034 1  13.20
 3265.8940 2645.6218 -11.830  6392.38 0.031 1  10.21
 3380.5498 2645.6724  -9.166   542.49 0.110 1   9.49
  214.7176 2646.6802  -9.683   891.76 0.090 1  10.59
   15.6586 2648.1355 -10.297  1793.01 0.062 1   7.82
 2202.0212 2648.2170  -9.756  1004.06 0.070 1   8.73
 4086.2329 2651.0488 -12.031  8770.04 0.030 1  11.10
  987.0484 2651.7371 -13.054 21669.64 0.028 1  20.88
 3304.7139 2652.6833  -9.720   909.23 0.069 1   7.01
 2568.8508 2653.9573  -9.338   803.25 0.089 1   8.04
 1321.3838 2655.0767  -9.424   674.10 0.090 1   7.43
 3530.2864 2664.2026 -11.395  4431.25 0.045 1  12.02
  299.5680 2668.0688 -11.747  6304.47 0.038 1  13.05
  336.7676 2668.4109  -9.180   589.28 0.129 1   9.91
   91.4004 2669.0083  -9.579   905.31 0.091 1   9.94
  831.6754 2669.8381 -11.618  5586.92 0.026 1  12.09
 3802.4849 2670.6689 -10.685  2095.98 0.058 1   6.48
 2796.6875 2671.8838 -10.698  2206.94 0.064 1   8.53
 1648.7976 2673.3159 -10.172  1464.68 0.063 1   9.33
 1488.0575 2677.2812  -9.739  1034.03 0.075 1   8.77
 3638.3674 2678.3618  -9.870   953.27 0.083 1   7.32
  390.8693 2680.0999  -9.940  1340.39 0.053 1   8.29
 2556.3994 2681.2180 -11.697  5403.22 0.043 1  11.62
  884.4180 2683.0349 -14.587 67607.00 0.000 1  41.22
 1340.8976 2683.0693 -10.100  1491.92 0.049 1   6.91
 4049.5063 2689.1819  -9.908  1054.46 0.064 1   5.50
 2109.5825 2689.6375 -10.504  1602.14 0.049 1  10.16
 2130.5579 2693.8782 -10.079  1200.74 0.055 1   8.04
  383.6803 2695.8298  -9.746   993.65 0.054 1  11.00
 2005.9059 2695.8376 -11.874  7179.62 0.044 1  14.12
 2086.0613 2695.5725 -11.354  4067.15 0.040 1  10.70
  207.7088 2699.4302 -10.106  1228.76 0.070 1   8.71
 1086.9368 2701.9136 -10.078  1462.43 0.069 1   7.53
  544.0798 2702.8743  -9.238   688.33 0.096 1   8.95
 1244.3514 2704.3606 -11.480  4219.71 0.030 1  11.48
 3083.9648 2707.3210 -10.559  2156.61 0.045 1   8.49
 2040.1636 2708.9868 -12.297 11007.45 0.030 1  12.67
 2100.2368 2709.1765  -9.244   658.68 0.103 1  11.19
 1513.6606 2710.4631 -12.254  8658.36 0.033 1  11.43
 2365.6072 2709.9109  -9.402   716.53 0.072 1  10.21
  664.6186 2714.3931 -10.585  2010.20 0.032 1  10.04
 2591.7146 2714.6567 -10.017  1171.60 0.050 1   7.77
 3828.7969 2715.2446 -11.405  4715.92 0.028 1   7.41
 3146.2339 2717.3201 -11.818  6469.46 0.032 1  10.48
 1263.3683 2723.2046 -10.150  1317.36 0.060 1   7.57
  597.2046 2724.2988 -10.656  2320.62 0.039 1  11.19
 1308.3890 2724.2009 -11.042  3047.66 0.044 1  10.56
 3028.4399 2729.3621 -11.264  3311.55 0.045 1   8.90
  541.9323 2730.4934 -11.084  3173.45 0.036 1   8.29
 4007.5903 2731.4512 -10.544  1820.27 0.041 1   8.22
 1885.8456 2733.4270 -13.845 39363.22 0.046 1  20.50
 2723.5264 2735.5044 -12.681 11835.20 0.032 1  13.93
 2999.1138 2735.1675 -10.825  2366.82 0.347 1   7.46
  589.4184 2736.7869 -12.082  8399.24 0.034 1  11.25
 2465.9468 2736.6584 -10.642  2120.88 0.055 1   9.01
 3169.0256 2739.3223 -10.623  2286.52 0.037 1   8.93
 1993.8658 2740.4653 -12.288  9159.91 0.036 1  13.38
 2824.7976 2741.3569  -9.187   620.77 0.095 1   9.92
 3515.0305 2744.2693 -12.752 16479.57 0.032 1  17.72
  213.9989 2745.2542 -11.584  5730.88 0.041 1  10.63
  331.3453 2748.0718 -11.550  5545.66 0.043 1  13.25
 3673.6882 2754.7158 -11.442  4344.39 0.039 1   9.08
 3577.3435 2757.8096 -10.222  1521.24 0.062 1   8.83
 2216.1177 2758.5188 -11.470  4421.79 0.049 1  12.62
 1862.0785 2759.9167  -9.453   861.74 0.065 1   9.54
 3738.5327 2760.6382  -9.781   896.24 0.060 1   7.17
  314.7804 2761.8440 -11.651  6210.87 0.056 1  12.38
 1763.3534 2762.2388  -9.974  1171.18 0.044 1   9.17
 3101.6023 2762.3577  -9.575   771.94 0.061 1   8.69
  486.3989 2762.6809 -11.986  7622.24 0.030 1  13.74
 1122.2013 2762.9250 -11.858  7352.46 0.030 1  10.51
 3884.5762 2765.0322  -9.175   558.07 0.092 1   7.50
 2239.9639 2766.1150  -9.491   877.05 0.065 1  12.76
 3369.3994 2767.8696  -9.441   743.92 0.083 1   9.79
 1257.2677 2770.6418 -12.299  9912.26 0.032 1  11.36
 2181.0845 2772.9604 -12.837 18263.83 0.034 1  13.18
 1543.1835 2776.3059 -10.020  1253.04 0.061 1   9.82
  905.8658 2777.8096  -9.810  1125.54 0.060 1   8.44
  492.0385 2779.5396 -10.918  2718.48 0.037 1  12.98
 2006.7621 2782.6672 -13.038 15828.22 0.131 1  20.02
  542.9837 2786.4702 -11.337  4103.93 0.047 1  12.01
 2551.8096 2785.8687  -9.540   867.47 0.077 1  11.38
 3552.2285 2786.3047  -9.830  1046.84 0.058 1   9.06
 3363.4048 2787.5474 -11.507  4289.98 0.043 1  11.22
 3233.2170 2789.4353  -9.620   812.77 0.071 1   6.94
 2556.4619 2793.0610 -10.766  2317.59 0.039 1   9.87
 2750.0349 2793.1235 -15.438 72462.41 0.000 1  72.38
 1370.5322 2795.3179 -12.086  7441.45 0.029 1  11.51
 1918.0319 2796.2158 -12.391 11809.37 0.035 1  12.89
 2363.9646 2796.8604  -9.753  1069.15 0.072 1   7.90
 3412.7314 2798.6743  -9.017   521.41 0.099 1   7.04
 2033.2906 2804.1150  -9.474   765.48 0.064 1  10.04
 1410.3049 2807.8213 -12.106  8909.95 0.029 1  11.26
 1494.0234 2809.7280 -13.157 22769.59 0.033 1  18.52
 2462.8762 2817.8518 -10.176  1476.54 0.047 1   5.71
  293.3846 2823.2498 -10.610  1859.75 0.182 1  10.25
 2596.3958 2822.5396 -10.903  2422.85 0.045 1  10.70
   88.9693 2828.0701 -10.432  2075.98 0.065 1   9.40
 2366.6689 2831.4858 -10.059  1184.71 0.043 1   9.16
 2715.1689 2833.7427 -11.248  4138.30 0.049 1  16.57
  681.0101 2837.4556 -12.503 12014.26 0.033 1  17.87
 2621.4856 2836.5195 -10.530  1581.79 0.056 1   8.46
  517.5438 2839.8003  -9.006   506.28 0.119 1   8.26
  826.1111 2842.3882 -10.689  2325.63 0.044 1   7.61
  673.0581 2843.1033 -12.224 11179.78 0.033 1  23.11
 1214.1720 2843.8093 -14.779 68112.12 0.000 1  46.93
 2070.2004 2845.1338  -9.716   960.78 0.084 1   7.63
 3673.3740 2846.6028 -12.775 14813.21 0.025 1  15.46
 2711.5059 2848.3333 -11.792  5763.88 0.030 1  17.33
 1329.6624 2849.3928 -11.534  4802.97 0.027 1  10.22
  180.3535 2850.5317  -9.661   899.81 0.098 1   8.44
 3738.1201 2852.8394 -14.247 66401.34 0.000 1  32.55
  671.5836 2856.8257 -11.124  3310.00 0.048 1  13.23
 2294.3325 2857.4607  -9.949  1027.56 0.069 1   8.64
 2484.1189 2857.7048 -10.005  1289.11 0.084 1   7.95
 3710.1614 2859.0349 -10.179  1716.72 0.059 1  15.72
 1054.7937 2859.5635  -9.259   653.50 0.095 1  10.10
 1653.4659 2861.2302 -16.271 73250.93 0.000 1 150.48
  576.4664 2862.2329 -10.062  1213.26 0.047 1  12.58
 2881.0847 2869.4819 -10.516  1836.82 0.063 1   7.05
  319.4804 2871.6282 -10.810  2379.63 0.041 1  10.31
 3309.7390 2874.1460 -12.841 17627.09 0.031 1  16.23
 1049.3903 2875.0410  -9.615   850.18 0.059 1   7.23
 1900.0063 2875.1394 -10.707  2535.28 0.051 1  10.67
   84.7014 2877.7234 -10.703  2374.66 0.056 1   7.90
 3653.7046 2878.0029 -10.025  1299.78 0.060 1  11.73
 3760.6721 2879.2351 -12.246  9897.50 0.029 1  18.47
 3095.3589 2880.1689 -16.608 73844.38 0.000 1 197.95
  537.7756 2882.2678 -10.636  2349.44 0.048 1   9.12
 1027.4260 2881.9128 -10.925  2794.73 0.036 1  10.40
 3156.9192 2884.0388  -9.439   874.73 0.056 1  13.36
 3128.5115 2886.0991 -10.299  1492.27 0.046 1  29.79
 1262.1448 2888.5999  -9.343   676.37 0.070 1  12.57
 3017.2820 2890.3018  -9.207   603.70 0.063 1  11.09
 1941.8793 2892.7214 -10.798  2557.00 0.054 1  10.60
 3856.9392 2894.4282 -12.045  8168.55 0.025 1   9.79
 1658.7695 2895.1023 -10.812  2730.01 0.036 1  24.25
   13.7444 2895.9912 -12.064  9264.76 0.060 1  11.07
   91.4885 2895.9233  -9.688   906.66 0.084 1   7.46
  597.9447 2897.1045 -12.601 15486.96 0.039 1  13.51
 1898.3793 2898.3733 -11.354  3712.68 0.025 1  12.65
 3107.6628 2900.5208  -9.574   745.17 0.113 1  35.36
 3766.5515 2899.7751 -12.941 16656.23 0.032 1  17.26
 4079.7703 2900.8459  -9.689  1036.97 0.072 1   8.01
  787.9880 2902.1199 -11.970  8677.26 0.033 1  11.78
 2303.5840 2902.7458 -11.811  5906.77 0.030 1  14.96
  688.2388 2903.5786 -12.331 10723.67 0.042 1  13.88
  474.0192 2905.1094 -12.836 19085.79 0.041 1  15.47
 2366.9805 2905.1147  -9.620   938.92 0.076 1   7.93
  179.3799 2906.3469  -8.906   406.63 0.118 1   6.78
  286.5450 2906.3975  -9.789   926.12 0.059 1   7.99
  239.0648 2910.2615 -12.321 10911.32 0.063 1  17.67
  467.8927 2909.7234 -10.128  1266.61 0.143 1  18.23
 2230.0449 2910.0540  -9.800  1108.22 0.058 1  22.40
 2173.3247 2911.0654 -11.986  7847.85 0.030 1  12.04
 1486.5012 2913.1665  -9.675   876.62 0.076 1   7.29
 1326.2740 2915.0081 -10.821  2739.42 0.044 1  10.83
 2710.2844 2915.3950  -9.927  1095.08 0.072 1   5.52
  505.0782 2916.6067  -9.634   934.19 0.092 1  10.35
 1667.9413 2916.9985  -9.490   876.49 0.064 1  15.59
 3183.8088 2916.7258  -9.274   637.90 0.071 1  11.34
  650.5094 2918.7808 -10.042  1238.11 0.069 1  12.63
 3657.2122 2929.6968  -9.516   843.61 0.066 1   9.88
 1819.1310 2931.0212 -10.648  2469.00 0.031 1   9.27
 2246.5029 2931.8838 -15.675 68546.62 0.000 1  92.77
  825.3751 2934.2102  -9.908  1136.32 0.075 1   9.76
  643.1633 2934.7358 -12.353 11966.46 0.033 1  14.83
  362.6465 2935.8120 -12.980 19170.05 0.044 1  17.78
 1693.0542 2936.1509  -9.354   757.29 0.079 1  12.97
 1839.2671 2937.7446 -10.370  1745.62 0.060 1   6.66
  676.9413 2939.0830 -10.919  3328.79 0.029 1  12.55
  941.0238 2940.1492 -11.969  8371.26 0.023 1  12.85
  915.2859 2940.8752 -13.139 23402.17 0.023 1  16.45
  213.8443 2942.5598 -12.330 10190.77 0.059 1  12.36
 1361.4292 2943.6252 -10.944  2681.24 0.030 1   8.89
 2596.3794 2944.1892 -11.626  5283.22 0.033 1  12.79
  398.8495 2945.9763  -9.647  1072.12 0.077 1  10.81
 3076.3318 2949.5935 -10.534  1847.33 0.043 1  11.11
 2608.6028 2951.3501 -11.509  4669.93 0.031 1  12.52
 3607.6328 2950.7537 -12.217  8829.77 0.034 1  12.68
 1801.7253 2951.7261  -9.425   700.96 0.082 1   8.01
 1013.3763 2952.7686 -10.953  2968.79 0.024 1  10.47
 1719.3373 2954.1062 -13.360 26355.24 0.035 1  17.71
 1433.3499 2954.8499  -9.695   937.44 0.083 1   7.23
 2162.5427 2962.2576 -10.606  2042.11 0.042 1  10.02
  330.8591 2966.0527 -13.393 31458.97 0.045 1  21.86
 2449.3235 2968.4011 -11.585  4722.66 0.032 1   8.38
 1162.6539 2970.9915 -12.088  8674.48 0.018 1  10.28
  369.7547 2979.7061 -12.101  8795.28 0.052 1  13.45
   62.5604 2981.4802 -11.184  3412.90 0.074 1  10.89
 2200.0024 2987.4280 -10.892  2727.44 0.041 1  13.78
   84.0386 2987.8396  -9.423   847.12 0.095 1   8.51
 3298.3020 2989.2271 -11.544  5076.88 0.042 1   8.79
  538.4259 2990.0115 -10.681  2323.85 0.051 1   8.16
 3140.5022 2990.1626  -9.230   561.73 0.089 1   9.40
  362.2509 2990.9744 -10.358  1919.34 0.051 1  10.99
  572.9636 2994.9656 -12.020  9248.96 0.047 1  10.95
 1531.9609 2997.4614  -9.222   579.43 0.074 1   6.96
  430.2159 2998.6912 -10.455  2010.00 0.049 1  10.69
  567.0029 2998.5317 -10.461  1708.66 0.071 1  16.04
 1416.9039 2999.4272  -9.679   960.78 0.084 1   8.83
 2184.1052 2999.9802  -9.850  1180.41 0.061 1   8.80
 1919.7419 3002.7800 -10.734  2475.68 0.035 1  10.33
 1832.6090 3003.7566 -11.323  3694.74 0.036 1   8.88
 1129.9594 3004.6904  -9.424   781.57 0.081 1   8.30
 2527.8462 3005.5618 -12.275  9227.31 0.023 1  13.93
 2311.6733 3011.9780 -10.436  1825.69 0.050 1   7.65
 2969.3101 3011.6226 -11.486  4480.56 0.044 1   8.90
 1495.4423 3016.4500  -9.382   575.09 0.062 1   7.01
 1538.2561 3018.4626  -9.229   575.52 0.090 1   9.48
 3030.4497 3021.2000 -12.302  9324.20 0.036 1  14.08
 1649.1852 3022.6963 -12.276 10300.76 0.022 1  10.29
  115.2655 3024.2991  -9.612   869.49 0.110 1   9.16
 3136.2507 3024.2078 -11.300  4225.46 0.031 1  11.42
 2003.1053 3024.6392 -12.856 16927.37 0.027 1  15.36
  548.4603 3028.2383 -10.448  1752.52 0.051 1   8.57
  418.0865 3029.1304 -13.235 27333.37 0.046 1  18.34
 1265.3966 3028.4988 -10.088  1160.96 0.045 1  15.10
 1027.7686 3029.6975 -11.557  5184.20 0.027 1  10.36
 1057.9877 3030.1555  -9.403   786.18 0.070 1   9.43
  727.2592 3031.3840 -13.489 28635.65 0.031 1  17.84
 1253.3905 3032.2559 -11.658  5216.23 0.023 1   9.34
  275.6803 3033.3240  -9.037   531.06 0.086 1   6.04
 1098.9070 3039.1135 -12.218 10555.01 0.022 1  17.00
  158.4579 3042.3442  -8.913   428.98 0.103 1   8.14
  309.4490 3043.8279 -10.168  1486.51 0.064 1   9.23
 1104.3730 3043.9290 -11.608  5369.76 0.031 1  16.51
 1316.3547 3043.9355 -12.018  8292.16 0.024 1  12.86
  828.8986 3046.6218  -9.954  1227.91 0.055 1   9.60
 2532.5022 3046.8223  -9.667   885.50 0.074 1   9.18
 2586.5911 3046.6802  -9.949  1028.29 0.044 1   7.30
 2885.9141 3048.8733  -9.950  1256.26 0.055 1   8.93
 3209.5879 3049.1013 -10.071  1247.20 0.080 1   8.64
  115.7130 3051.3782 -10.828  2700.09 0.063 1   9.36
 3886.1899 3053.4531  -8.994   481.78 0.101 1   7.78
 2673.5391 3055.5059 -12.383  9031.74 0.026 1  13.92
 3975.5383 3056.4390 -10.162  1298.38 0.049 1   7.09
  992.2252 3057.2983  -9.946  1176.07 0.050 1   7.26
  856.1367 3057.8027 -11.865  7638.35 0.031 1  12.78
 3589.1191 3058.2229 -11.104  3806.91 0.036 1  10.70
 3107.5293 3063.3293 -12.188  8221.92 0.031 1  12.75
 2783.1770 3066.4695 -10.413  1692.85 0.039 1  11.63
  494.9074 3068.3804 -12.453 12434.79 0.052 1  13.51
  779.7182 3068.0081 -11.861  7414.88 0.037 1  12.67
  964.1602 3068.1270 -10.366  1913.00 0.040 1   9.52
 1250.4769 3069.1833 -10.288  1481.73 0.034 1   5.43
  610.9827 3070.7456 -11.574  5669.94 0.042 1  13.41
  143.5750 3073.7517 -11.773  5975.24 0.064 1   7.73
 3450.9465 3075.4368  -9.767   997.48 0.053 1   8.80
  905.0896 3078.3821 -10.807  2595.18 0.037 1   7.27
 2959.8477 3079.0710 -10.914  3121.34 0.037 1   9.22
 2814.0361 3079.8713 -13.697 39727.34 0.035 1  22.37
 1464.8696 3080.5601 -13.763 35808.84 0.021 1  19.91
  668.5482 3090.3745  -9.000   459.59 0.096 1  16.12
 1527.5468 3089.7710 -11.228  3327.96 0.035 1   9.70
 2898.4648 3089.6328 -11.794  5816.80 0.032 1  11.98
  454.9712 3090.5740 -10.128  1419.50 0.066 1  10.92
 3443.0667 3092.4558 -10.961  2921.84 0.038 1  11.29
 1360.6586 3093.9670 -10.920  2958.00 0.032 1  10.28
 1851.4375 3093.8013 -11.100  3212.45 0.031 1  11.17
 2662.8035 3095.3779 -10.726  2365.11 0.045 1   6.46
 4071.9719 3098.9114  -9.995  1412.05 0.056 1   9.96
 1652.2922 3100.3503 -10.102  1272.48 0.043 1  10.23
 1759.7767 3100.2783 -12.349 10325.74 0.140 1  11.41
 1430.8607 3101.5630  -9.825  1022.95 0.067 1  10.89
 2250.4922 3103.2393  -9.298   611.66 0.077 1   7.12
 1646.9735 3104.3596  -9.238   619.24 0.092 1  10.99
  647.9640 3106.9368 -14.959 68998.84 0.000 1  54.19
 2871.1462 3108.8630 -10.342  1789.02 0.479 1   9.51
 1304.5042 3109.8816 -12.723 13893.95 0.019 1  13.75
  567.4880 3114.2991 -10.873  2543.47 0.049 1  10.78
  257.5020 3115.6421  -9.531   804.33 0.123 1   8.96
 2098.5527 3117.1406  -9.383   655.09 0.085 1  15.01
  170.7616 3119.2935 -11.357  4532.31 0.058 1   9.96
 1008.3932 3119.4646  -9.890  1010.33 0.062 1   8.48
 3219.7585 3120.0476  -9.664   989.95 0.087 1  11.59
 3100.8052 3122.6777 -11.146  3370.02 0.038 1  11.99
 2193.4993 3124.3240 -13.650 30358.65 0.030 1  19.01
  832.7577 3130.1143 -12.403 12249.47 0.028 1  11.30
 1379.6354 3133.5032  -9.883   996.27 0.052 1   9.19
 2100.9919 3133.2991 -12.438 11932.36 0.030 1  16.95
 1853.5958 3135.3201 -12.352 10108.03 0.021 1  12.50
 3362.3376 3135.8445  -9.871  1154.57 0.044 1   8.37
 1219.8429 3136.8936 -11.007  3357.49 0.038 1  10.21
 1479.6963 3136.6677  -9.622   798.14 0.078 1  11.29
 2929.1389 3141.3250  -9.783  1046.57 0.060 1   8.72
  544.5237 3143.3228  -9.289   603.51 0.092 1   7.43
 2340.1868 3143.7168 -10.855  2737.76 0.051 1   8.83
 3826.2612 3147.0151  -9.500   874.06 0.073 1   9.47
 1166.7207 3148.7029 -10.940  2809.76 0.030 1   8.48
 3182.0620 3150.0776 -14.234 66491.38 0.000 1  34.88
 2348.6062 3153.1677 -10.897  2746.01 0.043 1  10.90
 4065.9424 3152.9490 -12.804 19031.45 0.027 1  14.71
 2060.9763 3156.6021 -12.401 10777.03 0.028 1  28.61
 1684.2736 3160.1575  -9.248   701.68 0.079 1   7.32
 2673.4849 3160.8650 -11.741  5768.54 0.034 1  14.61
  439.9864 3164.9883 -12.173 10534.19 0.057 1  13.45
 1635.3090 3167.1567  -9.123   609.96 0.067 1  10.42
 1786.2448 3168.3735  -9.949  1075.95 0.067 1   7.79
 3781.5476 3168.4226 -12.427 10166.58 0.025 1  12.56
 1510.0726 3170.2432  -9.224   653.94 0.076 1   7.46
 2612.7595 3170.4749  -9.209   537.72 0.064 1   8.11
  323.2248 3170.7275 -10.667  2464.11 0.061 1  10.90
  884.5871 3172.6421 -10.653  1963.18 0.040 1  11.22
 2368.5190 3173.5806 -11.756  5168.93 0.029 1  12.38
  536.4292 3176.7490  -9.082   585.82 0.096 1  17.64
 3194.1396 3178.1975 -10.499  2081.37 0.043 1  10.78
 1275.1603 3181.2754  -9.861  1161.57 0.055 1   9.33
 1211.2498 3183.2900 -11.696  5797.34 0.023 1   8.81
 2030.4862 3183.2520  -9.848   987.23 0.052 1  27.62
 1327.0331 3184.7332  -9.637   916.64 0.054 1   7.43
 1680.4540 3184.8792  -9.970  1167.21 0.053 1   9.82
  337.4352 3186.0020 -11.038  3211.87 0.066 1  11.40
 2703.8679 3186.3621 -14.347 66670.58 0.000 1  37.18
 1989.0494 3189.1143  -9.765  1110.27 0.062 1   9.88
 3074.4858 3190.1245 -10.277  1447.78 0.046 1   8.77
 1757.9137 3190.9341 -10.668  2492.08 0.039 1   8.14
 2063.2188 3191.4856  -9.171   841.59 0.477 1  78.12
 3011.0911 3194.4250 -11.272  3859.75 0.035 1  10.78
 2005.9987 3198.9714 -11.053  3471.58 0.044 1  12.36
 2076.9619 3199.0408 -16.889 75799.62 0.000 1 257.92
 3467.5718 3202.2751  -9.956  1139.84 0.043 1   8.85
 3961.4014 3206.7285 -12.278 10110.59 0.037 1  12.21
  747.6120 3208.4976 -13.143 19733.94 0.034 1  17.34
 1602.0135 3209.6167 -10.575  2055.25 0.043 1   5.37
   39.7264 3212.3418 -10.599  2190.27 0.099 1   9.44
  669.3726 3211.5403  -9.611   878.40 0.078 1   8.62
 2727.4358 3214.3342 -13.120 18751.57 0.027 1  20.96
 1164.1814 3216.6919 -10.451  1936.58 0.030 1  11.06
 3087.9707 3217.4404  -9.478   777.79 0.055 1  10.08
 3693.7795 3218.4021 -10.705  2395.47 0.033 1   7.30
 3852.4336 3218.9050 -12.343 10920.62 0.031 1  13.84
  284.9593 3219.7747 -10.965  3390.92 0.064 1  10.36
 2258.5688 3220.1890 -11.224  3549.39 0.041 1   8.06
   54.1786 3221.3274 -11.523  5167.89 0.079 1  10.85
  564.5510 3222.4104 -16.405 71312.24 0.000 1 185.93
 1884.1288 3222.3950  -9.233   595.96 0.068 1   6.65
 1087.4413 3226.5540 -13.102 18966.53 0.019 1  16.62
 2643.9021 3227.6357 -10.192  1446.03 0.045 1  10.11
 4000.6841 3228.0974  -9.525   873.23 0.082 1   7.72
  698.1976 3230.3391 -10.160  1450.32 0.052 1   9.79
 1027.4965 3234.4539 -12.916 15115.95 0.027 1  17.41
 1326.2133 3235.8792 -12.300 11158.70 0.020 1  13.85
 2183.9707 3236.5854 -12.982 18664.35 0.024 1  17.84
 2660.3911 3236.6587  -9.190   593.26 0.068 1  11.72
   59.8974 3240.5918 -10.455  1901.56 0.095 1  11.94
  687.3333 3240.6472  -9.790  1044.35 0.077 1  11.30
 3878.3735 3243.5923 -11.291  3940.62 0.032 1   8.93
  437.8620 3245.4707 -10.823  2562.88 0.051 1  10.08
  121.0025 3245.9539  -9.353   799.69 0.107 1   8.74
 1411.6730 3246.4346 -11.108  3131.35 0.032 1   9.12
 1054.4485 3247.5342 -10.858  2355.90 0.030 1  11.21
 1359.0581 3247.5432  -9.413   677.16 0.060 1   9.21
 2813.6670 3248.9761 -10.516  2069.98 0.037 1   9.76
  708.9349 3251.2749 -12.030  8540.90 0.037 1  13.44
 1301.4745 3255.0894 -12.619 12753.78 0.019 1  13.60
 2409.6443 3254.6416  -9.985  1087.06 0.051 1   7.88
 3715.2969 3256.2126 -10.432  1855.61 0.032 1   8.09
 3768.0405 3256.9827 -13.686 42448.26 0.035 1  23.89
 4081.9463 3256.7827 -11.906  7974.57 0.039 1  12.05
 3091.7297 3258.1777 -11.663  6132.67 0.028 1  11.75
 1120.2494 3260.2998 -10.113  1323.44 0.044 1   9.30
 1816.2911 3263.2190 -13.262 24021.98 0.022 1  19.54
 1170.3561 3264.0862  -9.898  1140.52 0.047 1  10.32
 3320.3567 3265.5498 -10.812  2382.02 0.036 1  12.59
  104.3991 3266.4087 -12.214  8323.45 0.061 1  13.47
  434.3871 3267.1091  -9.048   567.04 0.112 1  10.75
 1870.8622 3267.3777 -12.541 12609.34 0.028 1  11.32
  390.6920 3269.8591 -13.032 21427.79 0.063 1  13.80
 2270.5122 3269.8037 -10.124  1324.21 0.063 1  10.57
 3783.8706 3271.4744 -11.460  4720.30 0.037 1  13.72
  253.5213 3272.4216  -9.753   870.42 0.089 1   9.11
  143.3499 3272.8330 -11.811  6984.33 0.074 1  14.04
 3402.4829 3272.9221 -11.188  3488.55 0.030 1  11.04
 2629.4956 3274.3560 -11.985  6664.15 0.034 1  12.07
 2717.0544 3273.8525  -9.888  1217.04 0.075 1   8.71
 1747.0817 3279.0703 -12.049  9051.61 0.020 1  11.61
 3195.2129 3279.6770 -11.006  3142.06 0.039 1   8.08
 1803.3127 3280.4749 -10.248  1383.42 0.047 1  11.53
 2349.5845 3281.0918 -10.220  1491.70 0.044 1   9.52
  278.3209 3282.1487 -11.158  3827.93 0.085 1   9.51
 3265.7192 3282.3640 -10.887  2687.90 0.034 1   7.74
 3617.9514 3282.0095  -9.734  1131.80 0.053 1   8.55
  476.9195 3283.8811  -9.771  1182.25 0.088 1   9.19
 3092.8955 3283.8926  -9.997  1349.61 0.051 1   8.85
  920.3643 3285.8137 -10.009  1279.13 0.050 1   6.59
 1814.5665 3286.5134 -10.468  1531.21 0.039 1  13.15
 3302.5977 3290.1011  -9.752   976.09 0.048 1  10.15
 3860.3069 3290.2610 -10.611  2222.39 0.047 1   7.45
  851.5893 3291.1479 -10.734  2384.89 0.042 1  11.85
  343.1873 3291.9890  -9.384   795.55 0.066 1   5.54
 1955.0021 3292.4497 -10.473  1729.53 0.057 1   9.86
 3499.4954 3292.6262  -9.451   685.36 0.071 1   7.80
  820.8724 3295.4231 -10.780  2554.28 0.041 1  11.70
 2582.8408 3295.3047  -9.273   666.92 0.089 1   8.71
   32.3949 3295.6462 -10.159  1411.98 0.080 1   9.11
  103.7381 3295.9141  -9.839  1203.80 0.086 1   9.30
  796.1511 3296.0127 -13.229 26898.77 0.037 1  16.96
  856.7405 3297.2122 -10.327  1796.46 0.041 1   9.45
 3670.9856 3298.7573 -10.390  1842.18 0.065 1   6.83
 1698.0448 3304.8044 -11.550  5629.32 0.023 1  12.13
 3440.2190 3308.4192  -9.245   610.27 0.075 1   6.99
 3878.8997 3310.0071  -9.559  1036.30 0.065 1   8.11
 3752.6272 3311.4785  -9.585   783.62 0.074 1   7.18
  283.6275 3312.4019 -10.479  1826.41 0.064 1  12.17
  515.5206 3312.1350 -11.275  3856.38 0.064 1  13.50
   79.6608 3314.0208 -11.287  4362.65 0.085 1  11.08
 3021.1450 3314.0256 -10.297  1743.21 0.057 1   8.47
 2012.5604 3314.6975 -13.093 17886.44 0.031 1  16.65
 3613.2158 3320.1558  -9.472   890.72 0.079 1   7.57
  142.0896 3322.1147  -9.559   971.89 0.117 1   9.38
 1643.9326 3321.9551  -9.515   845.47 0.068 1   8.18
 1437.5836 3328.2676 -10.731  2305.57 0.032 1  10.56
   61.7048 3335.2493 -13.797 43173.87 0.072 1  22.65
  406.6330 3334.8628  -9.582   878.77 0.104 1   9.26
 1075.4550 3339.0203 -10.733  2335.23 0.030 1  10.64
 2898.0796 3338.5315 -11.773  5868.04 0.029 1  10.51
 1320.1539 3341.9402 -12.118  9650.15 0.018 1  12.24
 1890.4487 3346.5806 -10.561  1801.52 0.038 1   7.50
 2168.2344 3352.5232 -10.114  1242.96 0.063 1  13.49
  293.1777 3356.2124 -10.363  1751.86 0.070 1  21.34
 3605.3350 3356.4214  -9.389   667.41 0.066 1   8.54
  379.6992 3357.4268 -11.302  4072.02 0.066 1  10.37
 2031.0215 3358.7205 -10.263  1590.38 0.062 1   9.58
  145.0505 3359.6643 -11.200  4139.26 0.088 1  13.11
  291.2505 3362.1350 -12.347 11435.61 0.067 1  17.84
  403.1022 3362.1328  -9.442   821.35 0.093 1   8.29
  676.2123 3361.5310 -10.705  2331.18 0.054 1   9.44
 1175.3723 3365.2493 -12.147  8362.11 0.031 1  10.49
 1496.5472 3365.8208 -11.957  6853.47 0.020 1  10.91
 2051.8889 3367.1023 -10.234  1655.93 0.058 1   8.76
 2244.8621 3366.6965  -9.747  1088.37 0.050 1   9.21
  149.1565 3369.5847  -9.153   576.79 0.112 1  11.82
 2157.2964 3371.3826 -12.981 17134.56 0.028 1  18.11
  453.3372 3372.4011  -9.458   672.82 0.114 1   7.83
 3748.9177 3372.7812 -11.020  3529.23 0.029 1   8.89
 2216.4199 3373.7747 -10.175  1452.40 0.045 1   9.62
 3048.0259 3373.9163  -9.862  1214.22 0.064 1   8.64
  376.7764 3375.2236  -9.653  1018.47 0.096 1  11.41
 1239.5717 3376.5864 -11.551  4271.37 0.019 1  12.19
 1187.0345 3378.0159 -11.466  5477.79 0.025 1  11.60
 2694.0271 3378.6064 -12.142  8892.30 0.027 1  11.52
 3267.4497 3379.8848 -13.506 30135.04 0.029 1  18.81
 3383.4038 3380.3364 -12.748 14018.32 0.023 1  14.51
 4019.3667 3382.0398  -9.703  1065.10 0.076 1   7.12
 1124.2292 3383.0918 -10.347  1854.55 0.043 1   9.08
 2888.7332 3383.3364 -10.831  2680.97 0.031 1  11.97
 2200.9285 3386.8420  -9.729  1112.66 0.067 1   9.01
 2225.7954 3387.7966 -11.494  4272.52 0.163 1  11.30
 2625.5156 3387.5759 -13.589 28094.41 0.032 1  18.53
 1297.5909 3388.8208 -11.379  4108.38 0.029 1  12.28
  323.8771 3391.1140 -12.432 13294.49 0.065 1  13.70
 1947.7736 3392.4788  -9.272   568.98 0.063 1   9.88
 2010.0730 3394.7373  -9.963  1249.67 0.047 1   9.64
 1610.1848 3395.4783 -11.802  5861.37 0.023 1  10.43
 3523.6877 3398.1355 -12.960 19953.98 0.025 1  17.97
 1367.5532 3399.3523  -9.977  1117.01 0.045 1  11.06
  358.8774 3402.3174  -9.129   583.04 0.081 1   6.70
 3648.1440 3401.5852 -11.296  4296.30 0.073 1   8.90
  836.8340 3406.1589 -10.826  2845.06 0.057 1  18.83
  242.0110 3407.0686 -10.989  3511.84 0.080 1  11.33
  907.0660 3406.9282 -11.125  4030.66 0.047 1  15.56
 1237.8600 3407.3057 -11.689  6110.72 0.021 1  10.44
 2456.1719 3410.6201 -11.689  5941.78 0.031 1  10.91
 2475.9158 3411.1001 -10.188  1733.61 0.060 1  11.30
  504.6840 3411.8586  -9.972  1253.03 0.063 1   7.93
   87.4386 3412.4375 -10.924  2524.25 0.086 1   8.74
 3513.9558 3413.3928 -13.292 26285.82 0.023 1  20.18
 1434.9102 3414.2214 -10.272  1716.55 0.047 1   8.30
 1027.3224 3417.3774 -10.624  1973.27 0.054 1  10.66
 3822.1274 3416.9360 -11.029  3652.35 0.035 1  11.14
 1457.5421 3419.3447  -9.822   990.98 0.045 1   7.14
 1190.7646 3424.3484 -13.028 20037.44 0.022 1  16.10
 2766.1140 3423.8245 -11.180  4078.50 0.030 1  10.51
 2958.8726 3423.6545 -10.535  1982.37 0.050 1   5.56
  483.2518 3428.1719  -9.851  1132.62 0.066 1   8.98
  821.8068 3430.0979  -9.781  1132.25 0.063 1  14.93
 3737.5190 3429.6995 -12.814 15295.59 0.032 1  14.84
 2020.0349 3431.5347  -9.954  1125.26 0.045 1  10.01
  982.4491 3432.5059 -10.378  1608.20 0.060 1   6.44
 1278.5403 3433.1541  -9.743   984.63 0.047 1  12.27
 2555.4956 3433.5054 -10.216  1244.49 0.047 1  10.39
 1740.4423 3434.8411 -10.540  1914.79 0.048 1   8.78
 1047.6990 3435.7312 -10.138  1416.98 0.045 1  10.72
  869.3360 3437.5056 -15.760 74109.21 0.000 1  98.15
  709.7019 3439.5825 -10.114  1248.38 0.073 1   6.70
 1806.8395 3440.4265 -13.336 25746.78 0.020 1  23.98
 2296.6526 3442.0918 -12.210  9394.90 0.035 1  12.19
  344.7457 3443.3098 -10.200  1573.19 0.085 1   8.38
 3837.9937 3444.4097  -9.715  1024.10 0.054 1   8.54
 1712.8921 3445.2329  -9.614   945.39 0.053 1   9.60
 2059.1841 3444.9180 -10.707  2673.63 0.033 1   8.51
 2557.2461 3446.2249 -12.886 17748.11 0.034 1  15.88
  814.7750 3447.2856 -10.627  2297.55 0.059 1  15.10
 3574.5022 3448.2761 -12.021  7429.63 0.030 1  13.10
  350.4770 3449.5967  -9.104   528.85 0.107 1  10.00
 1654.8177 3451.7378 -11.748  6295.90 0.022 1  11.35
 2152.4412 3452.6760  -9.847  1036.76 0.053 1   6.90
   22.6419 3453.7756  -9.946  1297.34 0.110 1   8.32
  242.0771 3460.2078 -10.749  2800.93 0.074 1  11.09
 2123.7517 3462.5867 -10.757  2178.63 0.039 1   8.64
 3523.4543 3468.3989  -9.945  1028.43 0.065 1   7.79
 2872.2952 3468.8630  -9.966  1230.14 0.068 1   6.85
 1853.0341 3469.8735 -15.634 73214.50 0.000 1  96.91
  160.2484 3474.0505 -11.377  4994.81 0.084 1   8.60
 2215.8586 3473.9116 -13.601 35472.14 0.034 1  19.10
 2977.8738 3476.3418  -9.233   633.15 0.078 1   9.52
 1868.5455 3477.0903 -11.455  4428.92 0.042 1  26.51
 2051.5994 3476.8381 -10.213  1475.07 0.048 1   8.42
  371.5728 3478.7874 -10.013  1218.29 0.085 1   7.72
 3735.9651 3481.2400 -14.183 67117.87 0.000 1  31.59
 2676.5112 3482.3811 -12.045  7032.25 0.027 1  11.08
  979.4972 3483.4578  -9.334   612.82 0.102 1  11.49
 3955.0051 3484.6392 -10.033  1319.25 0.051 1   6.35
  289.5777 3486.4478 -10.516  1875.40 0.086 1   8.11
 2534.6194 3489.5007  -9.245   555.65 0.073 1   7.76
 3622.0435 3488.6538 -13.725 40205.52 0.032 1  18.15
 3565.3535 3493.5742  -9.897  1121.18 0.076 1   8.05
 3270.4863 3503.4873  -9.490   685.85 0.067 1   7.35
 2841.5410 3504.1316 -10.750  2285.72 0.053 1   8.44
 1645.5549 3505.1958  -9.814  1001.53 0.056 1   9.61
 2137.4580 3505.9785 -12.530 11972.23 0.031 1  12.80
 3130.3235 3514.3218 -10.927  2801.83 0.041 1   6.54
 3579.7122 3513.7539 -10.857  2752.67 0.032 1   9.76
 1503.9735 3520.2800 -10.574  2274.08 0.034 1   8.87
  289.5193 3522.3699 -10.223  1444.01 0.087 1   9.57
  879.2234 3529.6189 -11.325  4284.00 0.047 1   8.56
  960.4883 3530.2656 -10.515  1821.51 0.048 1  12.16
 2289.2581 3530.4563 -11.758  5596.25 0.026 1  12.21
 3929.6514 3529.9329 -11.809  7066.39 0.041 1   7.05
   66.5971 3531.4995  -9.429   708.42 0.133 1   9.11
 1956.3442 3533.1082 -11.703  5953.10 0.028 1  12.67
  952.2654 3536.7744 -11.156  3729.83 0.040 1  11.66
 1171.2001 3536.7395 -10.433  2025.77 0.038 1   8.55
 1364.9108 3539.3999  -9.700   998.44 0.052 1   9.34
 1781.7098 3540.3481  -9.556   825.43 0.053 1   9.36
 2740.8169 3543.6946 -14.530 68937.92 0.000 1  38.74
 3837.0662 3543.5330 -11.487  4884.26 0.037 1   8.96
 3790.3630 3547.2666  -9.719   915.33 0.042 1   9.01
 2289.5491 3547.6357  -9.437   663.76 0.085 1   9.33
 1328.7222 3548.9031  -9.500   824.07 0.058 1   9.90
 1541.1641 3549.1340 -10.007  1360.22 0.055 1   8.77
 1985.9447 3550.2327  -9.463   818.77 0.052 1   8.20
  448.7696 3550.5688 -10.978  2922.65 0.076 1  11.87
  611.1232 3553.3186 -10.846  2845.77 0.082 1  11.64
 4016.4478 3555.0261  -9.446   803.74 0.089 1   8.53
  286.5306 3556.1638  -9.560   814.51 0.096 1  10.10
  700.7706 3556.7844 -10.632  2297.24 0.047 1   7.08
 1149.7211 3557.2522  -9.752  1043.66 0.053 1   9.41
 2229.6011 3563.7129 -11.424  4101.98 0.037 1   9.91
 1014.5956 3565.2563 -11.887  6970.09 0.035 1  12.85
 1037.5031 3568.9717 -12.037  7817.25 0.042 1  15.21
 3592.5142 3569.4216 -12.250  8698.42 0.033 1  11.91
  285.2716 3572.9604 -10.699  2638.69 0.092 1  12.37
 1352.4449 3575.1494 -11.045  3071.42 0.021 1   9.71
 2928.3008 3575.0024 -12.424 12242.60 0.035 1  15.71
  433.8322 3577.6875 -11.026  3338.38 0.065 1   8.96
  965.8521 3578.3440 -10.795  2714.28 0.048 1  11.29
 1610.4580 3578.4905 -11.610  4526.87 0.028 1  11.38
 3248.6138 3579.4724 -10.399  1552.68 0.049 1   6.77
 4006.8130 3582.3311 -10.785  2797.02 0.049 1  12.31
  627.7062 3584.3704 -10.923  2944.76 0.063 1  10.21
 3552.1477 3585.1489 -11.158  3914.70 0.033 1   7.51
 2504.2700 3586.5574 -10.813  2523.12 0.041 1   8.62
 3297.7939 3586.9563 -10.116  1382.41 0.114 1   5.60
 2915.6675 3589.9329 -11.864  7046.01 0.029 1  12.63
  971.0394 3596.9688  -9.968  1403.57 0.058 1  12.31
   89.5393 3597.9001 -12.341 10308.06 0.092 1  13.03
  768.1654 3599.4048 -10.414  1784.06 0.064 1   9.80
 2790.8057 3601.2065  -9.067   565.42 0.122 1   7.21
  511.9634 3602.2722  -9.815  1129.59 0.096 1   9.42
 3984.8452 3601.5532 -13.249 24323.21 0.040 1  13.71
  620.1179 3605.6038  -9.116   591.60 0.099 1   6.26
 2258.1208 3605.5669 -12.129  8614.06 0.022 1  19.28
  441.3026 3608.2209  -9.003   488.42 0.129 1   9.37
 1979.6594 3611.0554 -10.016  1247.91 0.056 1  10.72
 3110.2239 3611.0686 -10.841  2966.17 0.027 1   7.36
 2259.9766 3614.9221 -11.705  6622.80 0.033 1  15.15
 1082.1522 3616.5864 -10.849  2683.39 0.047 1   8.94
 1967.6215 3618.2429 -12.030  7594.76 0.034 1  10.37
 2135.3794 3618.3127  -9.320   617.27 0.059 1   8.91
 1173.7285 3619.7412 -10.661  2320.09 0.047 1  11.35
 1341.6150 3622.9192 -10.945  2982.71 0.033 1  10.18
 1534.4265 3623.0920 -12.727 14573.53 0.022 1  12.11
 3780.4639 3623.6179 -12.166  8741.74 0.039 1  11.24
 2222.5410 3625.0364  -9.750   956.34 0.054 1   9.23
 1047.1404 3627.0730  -9.534   876.23 0.057 1  10.27
  634.1548 3627.9526  -9.719  1098.36 0.073 1   6.52
  251.6892 3628.7424 -10.902  2806.53 0.080 1  11.86
  220.3675 3630.3848 -13.970 41403.22 0.075 1  21.13
 2389.2092 3634.3320 -10.754  2431.52 0.051 1   8.97
  298.7067 3637.1184  -9.118   588.44 0.140 1   7.06
 3839.7983 3636.8354 -12.056  9047.80 0.036 1  11.36
 2162.7402 3644.4065 -11.145  3487.48 0.035 1   7.39
 2191.9233 3644.6191  -9.264   652.80 0.078 1   6.17
 2867.6238 3646.4961 -11.006  2666.18 0.036 1   7.76
 1264.1014 3646.7371  -9.761  1159.57 0.070 1   7.78
  503.6969 3656.5159 -10.449  1789.53 0.091 1  10.29
  256.0123 3659.4399 -11.815  6335.65 0.080 1  12.05
 1557.0739 3658.7791 -10.498  2106.41 0.036 1   9.82
  895.8275 3660.1416 -10.637  2423.15 0.047 1   9.56
   43.1616 3670.3281  -9.501   823.68 0.134 1   7.66
 2981.3398 3671.0532  -9.995  1271.58 0.051 1   6.69
 2470.7734 3677.1604 -10.063  1423.21 0.043 1   6.26
 2653.4690 3677.0681  -9.779   975.34 0.041 1   5.52
  174.1216 3680.0239 -11.175  4310.15 0.093 1  10.29
 2082.8049 3681.1279 -11.532  5417.71 0.035 1   9.38
  327.4063 3681.4438 -11.292  3723.45 0.086 1   8.89
 1364.0894 3685.5720 -11.954  7341.98 0.027 1  11.08
 1683.9689 3693.8193 -10.143  1500.10 0.049 1   7.81
 2318.4500 3694.9531  -9.647   890.42 0.053 1   9.19
 3576.4912 3697.3269  -9.583   763.82 0.068 1   5.19
  577.2537 3697.8528 -12.622 15488.33 0.065 1  13.15
 3345.8044 3697.9033 -10.110  1447.97 0.049 1   7.73
 1033.9760 3698.5105  -9.130   525.38 0.067 1   8.69
  538.3567 3699.6260  -9.775  1003.03 0.073 1   8.11
  650.7617 3699.7166 -11.832  6817.00 0.058 1  10.90
 1086.9064 3700.9897 -10.601  2520.59 0.058 1  11.71
 2888.5767 3702.1677  -9.306   607.73 0.077 1   9.23
  236.6148 3705.3337  -9.879  1161.88 0.120 1   8.54
   48.1026 3706.4001 -10.478  1912.80 0.124 1   9.47
 1057.2189 3706.8848 -12.277 11343.76 0.046 1  10.53
 2927.9209 3707.6665 -11.313  4320.50 0.040 1  10.53
 2150.8728 3709.5901 -12.489 11691.02 0.026 1  14.56
 2542.2095 3710.4836  -9.510   757.12 0.057 1   7.66
  911.3871 3712.0764 -11.638  5655.62 0.048 1   9.39
 2766.3049 3712.3865 -12.184  8642.67 0.023 1  13.90
 2432.2778 3714.0415 -13.087 22072.33 0.038 1  18.64
 1864.0682 3714.7690 -10.723  2590.62 0.041 1   9.14
 3401.5557 3716.4351 -12.288  8988.56 0.020 1  10.22
 3527.4995 3717.1548 -10.653  2121.85 0.034 1   8.40
 2250.2854 3721.5691 -12.514 11853.70 0.026 1  12.70
 3964.8679 3722.6013 -11.663  6105.32 0.046 1   7.78
 1303.5933 3725.4368 -11.688  5306.49 0.024 1  13.91
  338.9793 3730.4392 -13.131 21851.16 0.082 1  14.46
 2535.4622 3730.4229  -9.913   958.24 0.051 1   6.84
 3166.4275 3732.8877 -11.623  5581.58 0.032 1   9.16
 3379.3394 3736.8730 -10.847  2981.56 0.045 1  10.35
 1790.5095 3737.9304  -9.647   856.09 0.052 1   9.08
 1203.7415 3738.8882 -12.610 14540.96 0.031 1  20.24
  580.7910 3743.2720  -9.460   839.16 0.104 1   7.89
  272.5804 3746.0557  -9.447   807.65 0.108 1  10.60
  810.5393 3746.9595  -9.403   657.44 0.086 1   6.38
 1221.6418 3748.7104 -10.918  2647.38 0.037 1  13.40
 3826.9548 3749.0894 -10.223  1787.74 0.047 1   8.98
 3978.1479 3749.2339 -11.623  6260.12 0.046 1  10.57
 2462.6399 3753.3669  -9.346   655.98 0.063 1   8.19
  765.5026 3756.0715 -10.645  2175.20 0.075 1   8.60
  499.8034 3757.0051 -10.116  1544.59 0.096 1  10.72
 2807.2368 3759.4976 -11.634  5303.76 0.035 1   7.48
 2954.9434 3760.3164 -12.062  8723.48 0.035 1  12.03
  278.7795 3765.5549 -10.192  1377.44 0.099 1   9.89
 2755.3350 3765.1106  -9.905  1188.56 0.054 1  10.45
 3436.1555 3765.2310  -9.872  1203.99 0.057 1   7.77
 3416.6328 3766.3069 -10.384  1714.01 0.047 1   8.61
  322.1845 3766.5081  -9.369   670.33 0.085 1   9.61
 1059.7444 3766.8594 -11.707  6325.64 0.042 1  10.39
 3791.7974 3770.1428  -9.722  1101.18 0.053 1   6.74
 1438.9022 3771.6599  -9.969  1265.00 0.039 1   8.81
 3900.5325 3773.9004 -12.001  7641.90 0.051 1  11.64
 3315.6150 3775.5066 -10.105  1254.41 0.053 1  10.20
 3324.6116 3776.3386 -11.363  4275.24 0.035 1  10.28
 2165.5146 3778.2834  -9.659   853.90 0.056 1  11.53
 1750.7870 3779.1965  -9.566   896.08 0.072 1   7.95
 1176.3818 3780.7578 -12.739 13261.92 0.112 1 110.02
 1322.2390 3783.5579 -15.942 75371.34 0.000 1 117.67
 1168.1320 3784.5010 -15.920 75597.53 0.000 1 121.98
  252.1311 3786.4539  -9.207   579.73 0.108 1   6.37
 4044.3381 3785.9683  -9.008   630.32 0.107 1   6.52
   83.1605 3786.5229 -10.654  2311.76 0.103 1   9.09
 2321.7212 3787.5911 -11.973  6830.65 0.029 1  10.83
 3835.2756 3787.5537  -9.877  1172.64 0.061 1   7.07
 3719.1797 3788.6340 -11.448  5211.88 0.050 1   9.10
 2185.6277 3793.2048 -12.392 11495.99 0.040 1  14.99
 2891.2166 3792.4822  -9.316   643.32 0.050 1   5.60
 1949.3732 3795.0876 -10.260  1332.88 0.230 1   7.16
 2024.8165 3795.7554  -9.497   823.43 0.056 1   9.52
 2536.8540 3795.7429 -10.437  2032.89 0.035 1   9.56
 3207.8533 3798.9065 -11.662  6422.40 0.034 1  10.83
 3974.4932 3798.9294 -12.832 17289.26 0.047 1  15.23
 2146.0610 3801.2598 -10.890  2963.51 0.045 1   7.08
 2801.1182 3803.1648 -10.321  1851.67 0.049 1   7.96
   66.2694 3807.1389  -9.682  1008.80 0.133 1   7.35
  634.1958 3807.3525  -9.142   569.70 0.115 1   7.98
  103.6194 3808.3481 -10.396  1826.63 0.109 1  10.56
 3055.3525 3808.2175 -12.340 10668.76 0.031 1  12.07
  332.5119 3808.5229  -8.989   440.11 0.118 1   6.88
 3820.4700 3811.7896 -10.080  1341.50 0.063 1   9.67
   86.9297 3813.9102  -9.532   921.52 0.116 1   7.92
 1762.2911 3815.1931  -9.079   560.41 0.074 1   8.44
 1165.2089 3815.5349  -9.805  1051.83 0.058 1  23.47
 1587.4270 3820.0403 -11.682  5666.05 0.029 1  11.01
 2567.8452 3821.3953 -10.529  2055.60 0.051 1   8.81
 3192.1604 3820.6985 -10.998  3409.35 0.039 1  10.18
 1773.3846 3821.7832  -9.731   955.45 0.048 1   8.67
  601.0132 3825.1711  -9.830  1170.06 0.079 1   9.47
 1016.8430 3826.1162  -9.651   988.98 0.066 1   8.81
  400.8136 3827.9844  -9.297   696.60 0.079 1   6.50
  484.9353 3829.3103 -12.402 12350.01 0.080 1  11.66
  137.9306 3831.4092 -11.260  4121.74 0.115 1   8.17
 1972.3518 3831.0356 -10.495  1977.77 0.046 1   9.45
 2461.2881 3830.9128  -9.328   727.20 0.062 1   6.81
 3172.0244 3831.7153 -10.198  1667.05 0.043 1   9.96
  808.5194 3834.7888  -9.355   658.19 0.085 1  10.81
 1359.4567 3835.1279 -11.576  5117.86 0.034 1  14.32
 2714.0483 3835.2791 -11.277  4370.87 0.032 1   9.38
  802.4198 3836.6372  -9.333   695.23 0.091 1  10.93
 1017.8496 3836.9561  -9.631   961.57 0.065 1   9.19
 3612.1958 3840.2083  -9.888  1271.68 0.063 1   7.92
 2403.6267 3842.7246 -10.673  2153.46 0.044 1   8.72
 1910.7041 3843.9219  -9.424   786.38 0.069 1  11.25
  921.2628 3846.3450  -9.587   833.45 0.086 1  11.36
 2536.6885 3847.5151 -12.573 11842.93 0.034 1  13.79
  210.6111 3850.4536 -12.343 10124.54 0.099 1  14.05
 2829.2283 3850.7698 -11.169  3852.56 0.040 1   8.88
 3085.1516 3851.1824  -9.654  1033.85 0.060 1   9.53
 1951.9874 3851.6067 -11.113  3350.80 0.040 1  12.64
  223.6087 3856.4409  -8.870   415.09 0.149 1  10.99
 3189.7100 3858.9487  -9.304   711.08 0.061 1   8.23
 3945.3875 3859.8354 -12.985 21309.39 0.047 1  13.71
 1064.9537 3862.2532 -10.014  1339.95 0.047 1   8.96
 1957.3618 3865.4026 -12.179  8110.26 0.020 1  14.81
 3927.5215 3867.2866  -9.565   820.92 0.094 1  12.51
 1113.1356 3869.6509  -9.859  1137.90 0.058 1  10.14
  990.0039 3870.5205 -12.256  9524.85 0.040 1  12.28
 1253.3696 3876.9575 -11.381  4710.73 0.039 1  10.42
 2877.1936 3876.8157 -12.375 12018.87 0.032 1  13.52
  877.1174 3881.5330 -10.659  2274.04 0.052 1  18.13
 1055.2526 3882.4314 -11.426  4143.22 0.044 1   8.82
 1539.3990 3881.4854  -9.955  1157.32 0.064 1   9.11
 1977.7820 3881.8669 -11.395  4749.21 0.046 1  11.43
 3197.0723 3884.7329  -9.048   621.05 0.096 1   8.38
   15.0533 3886.2092 -10.741  2770.04 0.109 1   8.93
   57.3199 3888.1301  -9.200   616.60 0.143 1   6.65
 1212.3787 3888.2622 -11.258  3792.41 0.040 1   9.83
 2518.4590 3897.7849 -12.541 12442.55 0.041 1  12.95
 2284.4165 3900.2559 -12.256  9165.69 0.035 1  12.99
 3423.5566 3900.3513 -11.216  3517.30 0.040 1   9.16
 1559.1338 3900.8499 -10.827  2946.62 0.033 1  10.48
 2839.3311 3901.4507  -9.235   594.71 0.083 1   8.17
  876.6536 3903.2883 -10.528  2087.11 0.049 1  42.80
 2177.9668 3904.3103 -10.584  2233.99 0.050 1  16.16
  111.3926 3907.1804 -13.106 21201.95 0.106 1  14.91
  727.3553 3909.0488 -11.176  3867.16 0.073 1   7.72
 1626.6296 3909.0010  -9.365   691.83 0.076 1   5.60
 1033.7562 3911.2852 -10.471  2076.74 0.057 1  10.61
  954.1854 3913.3691  -9.737   971.92 0.060 1  13.34
 3436.5054 3918.2217  -9.444   721.15 0.078 1   8.16
 3638.0801 3918.0056 -16.627 81478.43 0.000 1 204.75
 1203.8469 3920.0930 -12.236 10712.75 0.041 1  12.07
  893.5540 3923.7107 -16.466 80821.34 0.000 1 175.47
 2435.0623 3927.0520 -10.652  2591.84 0.050 1   9.22
 3771.7266 3926.7712 -12.351 11517.24 0.046 1  13.72
 1428.3185 3928.6575 -10.957  3028.43 0.031 1   8.07
 2468.1963 3929.2266 -10.722  2593.08 0.034 1   7.03
 3077.0620 3928.7073  -9.616   998.48 0.060 1  10.70
  606.2314 3929.7078 -10.152  1523.18 0.075 1   8.98
  654.6784 3934.5442  -8.979   474.84 0.127 1  10.31
 2155.9299 3936.4329 -14.708 72860.78 0.000 1  44.42
  665.8764 3938.3010  -9.435   805.38 0.095 1  10.83
 1280.0256 3938.2380  -9.494   848.59 0.057 1  10.66
 2321.0337 3938.1396 -12.848 19172.82 0.034 1  16.97
 3772.6936 3941.8875  -9.537   885.56 0.064 1   9.08
 1613.0400 3946.2593 -11.004  3335.06 0.032 1   8.93
 2649.7896 3946.4111 -11.480  4808.79 0.037 1   7.93
 3233.5664 3945.7839 -12.523 11898.75 0.032 1  14.16
 3115.5349 3947.7122 -11.615  5088.99 0.040 1  10.36
 2308.8806 3948.9358  -9.850  1257.91 0.053 1  10.12
 1547.4191 3950.0828 -10.199  1449.41 0.048 1   8.38
 3071.6914 3952.7524 -10.185  1547.57 0.058 1   5.95
  257.8627 3954.4622  -9.319   663.00 0.124 1   6.27
  366.1430 3954.0767 -13.095 24166.80 0.085 1  15.53
  524.1495 3956.5608 -10.032  1298.30 0.089 1   6.79
 1150.3423 3960.5305  -9.326   637.29 0.058 1   9.63
 1331.4110 3960.4475 -13.275 21751.69 0.029 1  21.80
 1932.5415 3962.1028  -9.889  1027.03 0.059 1   9.12
 3916.4453 3961.5195  -8.895   418.81 0.091 1   7.91
 1434.2955 3963.4060 -11.015  2832.83 0.041 1   8.92
   21.1647 3964.3376  -9.158   551.89 0.131 1   7.36
  625.5491 3963.4841  -9.900  1016.86 0.092 1  11.47
  915.3247 3964.6833  -9.302   702.26 0.069 1  20.01
 1339.4194 3964.4182 -11.596  4540.01 0.031 1  19.87
 3473.5593 3966.3154 -11.132  3297.85 0.048 1   9.05
 3746.5469 3965.7473 -11.072  3260.80 0.054 1  11.94
 4017.5762 3971.0398 -11.520  5215.85 0.056 1   9.57
  785.5751 3972.9268 -10.390  1725.24 0.069 1   8.53
 1387.1165 3973.5747 -10.039  1222.05 0.050 1  10.60
  638.1541 3974.7417 -10.574  2365.22 0.076 1   9.80
  768.0831 3978.3137 -12.092  9152.51 0.064 1  13.25
 2623.8987 3978.3315 -11.687  6308.88 0.032 1   8.03
 2246.3481 3981.9546 -10.564  2168.05 0.043 1   9.38
 1859.5625 3982.9561  -9.703   915.80 0.066 1   8.77
 1901.7388 3984.7974 -12.653 14791.77 0.029 1  12.81
  632.1801 3987.0881  -9.875  1297.26 0.089 1   9.76
  213.1707 3989.5618 -10.120  1411.73 0.108 1   9.09
  989.8046 3991.2468 -11.368  4704.87 0.054 1  10.72
 2000.6716 3991.7805  -9.349   659.50 0.069 1   6.51
  727.8726 3993.5913  -9.840  1091.15 0.103 1   7.35
 3165.5898 3994.4321  -9.231   552.75 0.072 1   7.34
 1031.2450 3994.7439 -10.149  1554.85 0.055 1   8.70
  965.2800 3995.4109  -9.034   481.33 0.100 1  10.79
 1596.2466 3998.8430 -10.614  2384.03 0.036 1  11.68
 2226.5818 3998.5801 -10.587  1823.89 0.053 1   9.02
 1098.6857 4001.3130  -9.150   602.71 0.074 1   8.06
 2680.0959 4001.8125 -11.951  8329.83 0.044 1   9.81
  414.7252 4004.7222 -13.255 25260.26 0.087 1  18.15
 3581.4873 4006.8145  -8.913   449.83 0.085 1   8.38
  604.5222 4009.9885 -11.613  5346.69 0.077 1  11.39
 2315.4622 4011.7280 -10.158  1391.01 0.061 1   7.78
  114.0445 4014.3538 -12.330 11102.36 0.116 1  14.79
 1444.4663 4013.5940  -9.882  1017.73 0.057 1   8.64
 3179.2915 4014.1960 -10.317  1777.25 0.059 1   8.24
 2640.4553 4016.2944 -10.349  1551.47 0.055 1  10.37
 2816.2974 4016.1248  -9.906  1239.31 0.058 1   7.52
 3378.0942 4016.9114 -11.644  6652.56 0.036 1   8.29
 1073.8185 4019.2642 -11.654  5926.72 0.065 1  10.33
 2565.6836 4020.9468 -10.514  2070.83 0.057 1  10.21
  194.5730 4024.3638 -10.477  1927.08 0.122 1  12.47
 1012.6044 4024.4670  -9.387   676.50 0.087 1   9.15
 2759.7368 4023.5911  -9.528   781.86 0.050 1   6.21
 1203.4712 4024.6389  -9.185   583.54 0.075 1   9.86
 1310.5969 4025.2336 -13.236 23878.55 0.035 1  19.42
 1366.2316 4025.3459  -9.850  1119.07 0.059 1  11.34
 2936.0862 4025.4260  -9.063   550.50 0.082 1   6.81
 1601.3911 4025.5544 -11.267  3807.44 0.042 1  10.59
 2784.6138 4029.7632 -10.152  1317.48 0.054 1   7.77
 1189.4368 4031.2563  -9.270   640.05 0.083 1   7.17
 3067.5132 4030.8699  -9.199   556.51 0.059 1   7.81
 3871.1523 4031.0840  -9.131   707.99 0.099 1   8.12
 1464.9661 4034.4387 -12.249  9784.68 0.034 1  12.19
 3885.6912 4033.5901 -11.779  6211.38 0.053 1   8.53
  426.8919 4036.3325  -9.563   914.00 0.113 1  12.58
 1346.5914 4036.3945  -9.369   646.00 0.085 1  10.62
 2500.3728 4037.1042  -9.485   827.45 0.078 1   7.54
 2581.1091 4037.2175 -12.426 12845.53 0.032 1  14.40
  416.9659 4037.5942 -11.232  3523.67 0.125 1  11.39
  156.5110 4039.4768 -14.270 68646.35 0.000 1  34.13
 1400.6642 4044.1833 -11.463  4980.86 0.040 1  10.19
  464.7610 4045.1062  -9.544   879.03 0.101 1   9.52
   27.8953 4053.1089  -9.715  1137.40 0.152 1   9.63
 1311.6241 4054.4114 -10.581  1996.12 0.043 1  10.51
 1924.3673 4057.1682 -10.780  2581.23 0.047 1   9.55
  529.0104 4059.3210 -10.041  1362.39 0.085 1   6.94
 3237.8723 4058.6392  -9.374   788.37 0.067 1   6.13
  310.5110 4059.6450 -15.266 79853.15 0.000 1  69.05
 3305.0054 4064.4360  -9.372   696.42 0.078 1   7.58
 3082.3340 4064.5835  -9.082   523.08 0.093 1   5.26
   81.7620 4066.0125 -10.150  1623.27 0.141 1   8.24
 1599.0311 4076.4060 -10.068  1417.35 0.056 1  12.16
  249.5776 4077.2661 -11.020  3106.90 0.111 1  13.16
 1880.1793 4077.3987 -11.050  3273.87 0.041 1   8.49
 2187.3130 4076.4985 -12.290  9474.66 0.038 1  10.20
 4089.1582 4077.7419 -11.138  4079.76 0.055 1   8.16
  169.8711 4080.9587 -12.339 12192.01 0.115 1  12.37
 2352.0869 4080.9150 -10.241  1762.73 0.053 1   6.41
 3708.2231 4081.6201  -9.192   623.12 0.058 1   7.18
  400.5361 4089.5942 -11.050  3032.37 0.088 1  10.27
 2648.9800 4091.0305 -11.976  8883.23 0.042 1  12.47
#
#....x.... ....y.... ...m... ....p... ..q.. k ...s..  
#
#  (01)      (02)     (03)     (04)   (05)     (07)   
#
